! Center RA: 02 22 39.61100,  Dec: +43 02 07.79900 (2000.0)
! Established model.
! Flux (Jy) Radius (mas)  Theta (deg)  Major (mas)  Axial ratio   Phi (deg) T \
! Freq (Hz)     SpecIndex
0.00231731     0.660000      180.000 
0.000726431     0.670000      180.000 
0.000423743     0.832166     -175.865 
0.000837704     0.842140     -175.914 
0.00195544     0.650077      179.119 
0.00159525     0.862844     -175.347 
0.000845444     0.872811     -175.400 
0.000595430     0.660076      179.132 
0.00156220     0.882780     -175.452 
0.00157831     0.892748     -175.503 
0.00131377     0.680000      180.000 
0.00148900     0.902718     -175.553 
0.000950097     0.912688     -175.601 
0.000780227      1.10018     -178.958 
0.00220898     0.670074      179.145 
0.000869928      1.12004     -179.488 
0.000312103     0.822192     -175.815 
0.00125569      1.13004     -179.493 
0.000342727     0.812219     -175.764 
0.000561380      1.14004     -179.497 
0.000192325     0.802247     -175.711 
3.81649e-05     0.670298      178.290 
 0.0240691    0.0100000      90.0000 
 0.0400777      0.00000      0.00000 
 0.0219649    0.0141422      44.9996 
0.000791508    0.0640310     -141.340 
0.00377884    0.0860232     -144.462 
0.00504017    0.0282845      44.9996 
0.00419844    0.0999998     -143.130 
0.00880885    0.0424265      44.9999 
0.00262252     0.108166     -146.310 
0.00487326     0.114017     -142.125 
0.00649276     0.122065     -145.008 
0.00936777    0.0500001      53.1300 
 0.0110019     0.120416     -138.366 
0.00765313    0.0538518      68.1983 
0.00223758    0.0608276      80.5375 
0.00112995     0.120416     -131.633 
0.00515820     0.114018     -127.875 
0.00408420    0.0600000      90.0000 
0.00630748    0.0707107      98.1299 
0.000940914     0.108166     -123.690 
0.000307827     0.178885     -153.435 
0.000607351     0.102956     -119.054 
0.000299964     0.187883     -154.799 
0.000297130    0.0984885     -113.962 
0.000582018     0.196977     -156.037 
0.00142755     0.104403     -106.699 
0.000559160     0.206155     -157.166 
0.00134054     0.101980     -101.310 
0.000536358     0.215406     -158.199 
0.000769646     0.224722     -159.146 
0.00174024     0.100499     -95.7105 
0.000754243    0.0824620      104.036 
0.000968920     0.234094     -160.017 
0.000947714     0.101980      11.3099 
0.00186910    0.0854399      110.556 
0.00284665     0.100000     -90.0000 
0.000910023     0.243516     -160.821 
0.00107320     0.111804      10.3048 
0.00106662     0.256320     -159.444 
0.00278867    0.0984885      113.962 
0.000204288     0.269258     -158.199 
0.00115805     0.121656      9.46229 
0.000400599     0.278567     -158.962 
0.00171976     0.100499     -84.2893 
0.000771306     0.291547     -157.834 
0.000734520     0.304631     -156.801 
0.00137833     0.131530      8.74615 
0.00217188     0.110454     -84.8055 
0.000178388     0.250000     -163.740 
0.00149282     0.102956      119.054 
0.000176547     0.313847     -157.521 
0.000346072     0.317805     -155.854 
0.000340314     0.247386     -165.964 
0.00113748     0.326955     -156.571 
0.000163431     0.245153     -168.232 
0.00165456     0.141422      8.13009 
0.000314742     0.243310     -170.538 
0.00145734     0.340147     -155.695 
0.000594832     0.241868     -172.875 
0.00268283     0.111803     -79.6950 
0.00300642     0.111803      116.565 
0.000818557     0.240832     -175.236 
0.00166811     0.151328      7.59462 
0.00117196     0.349285     -156.371 
0.00172656     0.116619      120.964 
0.000977944     0.240208     -177.614 
0.00149876     0.353412     -154.885 
0.000568259     0.152971      11.3099 
0.000451851     0.114018     -74.7448 
0.000227233     0.250200     -177.709 
0.000114228     0.161245      7.12501 
0.00142818     0.250000      180.000 
0.00112393     0.123693     -75.9637 
0.00245623     0.162788      10.6196 
0.00399436     0.362491     -155.556 
0.00188469     0.126491     -71.5649 
0.000360978     0.250200      177.709 
0.00127234     0.260192      177.797 
0.00486873     0.172627      10.0080 
0.00261840     0.286531     -119.249 
0.000641660     0.270185      177.879 
0.00144292     0.130000     -67.3800 
0.000564877     0.270739      175.764 
0.00122110     0.371618     -156.194 
0.00312890     0.405216      164.249 
0.00108748     0.107703      111.801 
0.000260139     0.280000      180.000 
0.00117454     0.143178     -65.2248 
0.000785696     0.380789     -156.801 
0.000410245     0.280178     -177.955 
0.000239430     0.280713     -175.914 
0.000671161     0.390000     -157.380 
0.000438416     0.290688     -176.055 
0.00120400     0.147648     -61.6993 
0.000241607     0.104403      106.699 
0.000847218     0.399249     -157.932 
0.000423750     0.395601      163.856 
0.000319547     0.412310     -157.166 
0.000304394     0.291547     -174.094 
0.000915017     0.197231      30.4655 
5.26239e-05     0.421545     -157.694 
0.000710563     0.171172      6.70984 
0.000568004     0.544242     -159.567 
0.000505448     0.301496     -174.289 
0.000645318     0.152644     -58.3923 
0.000189888     0.311448     -174.472 
0.00197990      1.40071      170.134 
0.00334340      1.41057      170.204 
0.00329305      1.32439     -165.124 
0.00151390      1.70018     -166.045 
0.00218541      1.61645     -156.289 
0.000236924      1.49335     -176.160 
0.00139336      1.48408     -175.749 
0.000298883      1.60723     -163.369 
0.000864142      1.62561     -156.431 
0.000387785      1.59101     -162.818 
0.00376005      2.88624     -159.305 
0.00257632      1.47340     -176.108 
0.000889859      2.88045     -159.048 
0.000855836      1.47275     -176.496 
0.000330778      3.44327     -150.606 
0.000362248      3.45198     -150.687 
0.000284852      3.46560     -150.624 
0.000355747      3.47432     -150.705 
0.000467072      3.48304     -150.786 
0.000372009      3.49178     -150.866 
0.000155437      3.62581     -150.961 
0.000808852      3.63067     -150.823 
0.000172590      3.47817     -150.929 
0.000263745      3.47333     -151.074 
1.63199e-05      3.48692     -151.009 
0.000205194      3.46850     -151.218 
0.000230942      3.63556     -150.685 
0.00213755      2.46895     -175.121 
0.00157075      2.46812     -175.352 
0.000777857      2.47808     -175.371 
0.00107007      2.47891     -175.140 
0.000124698      2.42405     -176.689 
0.000242892      2.41350     -176.912 
0.000121601      2.47978     -174.910 
0.000237238      2.48069     -174.680 
0.000118439      2.41299     -177.149 
0.000231313      2.40300     -177.138 
0.000342164      2.48163     -174.450 
0.000334001      2.40252     -177.376 
0.000327179      2.48262     -174.221 
0.000108079      2.40208     -177.614 
0.000211525      2.62275     -177.378 
0.000412404      2.39209     -177.604 
0.000410173      2.48365     -173.991 
0.000202009      2.63274     -177.388 
9.90853e-05      2.19647     -171.095 
9.83742e-05      2.38210     -177.594 
0.000381065      2.64273     -177.397 
0.000654100      2.18660     -171.055 
0.000190952      2.48471     -173.762 
0.000189957      2.38170     -177.834 
0.000269695      2.65272     -177.407 
0.000267985      2.37171     -177.825 
0.000179632      2.49465     -173.787 
0.000589204      2.17672     -171.014 
0.000170917      2.49576     -173.558 
0.000417354      2.66271     -177.417 
0.000411231      2.37135     -178.067 
0.00147633      2.93171     -171.566 
0.000668693      2.50569     -173.584 
0.000940982      2.16684     -170.972 
0.000304085      2.66227     -177.632 
0.000370211      2.36136     -178.059 
0.000774077      2.67226     -177.641 
6.96114e-05      2.37103     -178.308 
0.000449018      2.36104     -178.301 
0.00134516      2.50683     -173.357 
0.000248354      2.93319     -171.373 
0.000717181      2.15697     -170.931 
0.000485625      2.94160     -171.594 
0.000389905      2.35104     -178.294 
5.66401e-05      2.95584     -172.418 
0.000419906      2.68226     -177.650 
5.60104e-05      2.93471     -171.180 
0.000109659      2.92638     -170.956 
5.48410e-05      2.95327     -172.803 
0.000158825      2.14709     -170.889 
5.37147e-05      2.96319     -172.827 
0.000105293      2.92797     -170.763 
0.000104257      2.96196     -173.019 
0.000526684      2.14870     -170.625 
0.000472446      2.35077     -178.537 
0.000101339      2.91973     -170.538 
0.000149099      2.96076     -173.211 
0.000192021      2.92139     -170.344 
0.000230809      2.95959     -173.403 
0.000184636      2.67187     -177.855 
0.000223308      2.92308     -170.151 
0.000376688      2.68186     -177.863 
0.000404460      2.95846     -173.596 
0.000517438      2.13883     -170.582 
4.25256e-05      2.93293     -170.184 
8.36368e-05      2.44000      180.000 
8.29967e-05      2.92481     -169.958 
4.16907e-05      2.34077     -178.531 
0.000155605      2.67152     -178.069 
0.000196638      2.93465     -169.992 
7.91878e-05      2.33105     -178.279 
7.77288e-05      2.43000      180.000 
3.77028e-05      2.32138     -178.025 
0.000111520      3.05984     -169.645 
7.29431e-05      2.42000      180.000 
0.000908552      2.95736     -173.788 
3.64257e-05      2.32106     -178.272 
0.000175523      3.07148     -169.495 
0.000539684      2.50801     -173.130 
3.58220e-05      2.93641     -169.800 
0.000327756      2.12897     -170.538 
0.000102881      2.31138     -178.017 
6.85710e-05      2.41000      180.000 
3.36966e-05      2.92657     -169.765 
0.000342673      3.08131     -169.529 
6.47806e-05      2.12735     -170.803 
9.54102e-05      2.40000      180.000 
6.26347e-05      2.91673     -169.730 
6.34230e-05      2.30176     -177.759 
9.39736e-05      2.69186     -177.871 
8.87899e-05      2.39000      180.000 
5.92310e-05      2.29218     -177.500 
0.000390073      2.70224     -177.667 
5.79819e-05      2.11910     -170.493 
5.67190e-05      2.11747     -170.760 
8.22088e-05      2.90689     -169.695 
0.000242477      3.09115     -169.563 
0.000109459      2.38000      180.000 
2.81396e-05      2.13410     -169.743 
8.13393e-05      2.28265     -177.238 
2.72959e-05      2.13591     -169.479 
2.68091e-05      2.11589     -171.027 
2.64936e-05      2.13776     -169.216 
5.12927e-05      2.11436     -171.295 
5.12670e-05      2.37000      180.000 
2.57498e-05      2.12793     -169.165 
7.50433e-05      1.99612     -166.381 
4.99440e-05      3.09298     -169.380 
9.45734e-05      2.27317     -176.974 
9.65377e-05      2.36000      180.000 
4.79482e-05      2.89705     -169.660 
7.07839e-05      2.11287     -171.563 
0.000273315      3.10280     -169.414 
4.81481e-05      1.98640     -166.314 
0.000158061      2.51794     -173.157 
6.96925e-05      1.97669     -166.245 
0.000110615      2.35000      180.000 
4.48696e-05      1.96698     -166.176 
4.36722e-05      1.95727     -166.106 
4.33663e-05      2.11142     -171.832 
2.18243e-05      2.88903     -169.429 
6.41694e-05      2.71223     -177.676 
4.23463e-05      1.94756     -166.035 
2.11077e-05      2.26374     -176.708 
2.09679e-05      3.11264     -169.448 
0.00112502      1.68467     -156.935 
6.11504e-05      1.92044     -163.358 
0.000242088      1.67547     -156.801 
0.000213951      1.93003     -163.443 
0.000125624      1.48061     -159.852 
0.000673408      1.93961     -163.527 
3.38479e-05      1.67943     -156.488 
0.000239050      1.67027     -156.351 
0.000293778      1.47719     -160.216 
0.000208912      1.47384     -160.582 
0.000134126      1.66111     -156.213 
7.60049e-05      1.47054     -160.949 
2.46343e-05      1.97773     -157.714 
1.03360e-05      1.93680     -163.811 
0.00227509      4.82147     -173.450 
9.22747e-05      4.83141     -173.463 
6.52769e-05      4.90442     -173.208 
2.09530e-05      4.91435     -173.222 
9.92119e-05      4.92546     -173.120 
3.96658e-05      4.81154     -173.436 
0.000110995      4.80047     -173.541 
0.000158177      4.93539     -173.134 
0.000131302      4.79053     -173.528 
9.27880e-05      4.94532     -173.148 
0.000114944      4.78060     -173.514 
0.000172417      4.94652     -173.033 
0.000213096      4.95645     -173.047 
2.62915e-05      4.77066     -173.501 
3.84154e-05      4.77948     -173.633 
0.000156533      4.76954     -173.620 
0.000179620      4.96638     -173.061 
9.29822e-05      4.75960     -173.607 
0.000644275      4.75310     -173.234 
7.56727e-05      4.92667     -173.005 
7.26766e-05      4.72451     -173.071 
0.000147687      4.93660     -173.019 
1.38665e-05      4.69596     -172.905 
0.000179850      4.62177     -172.291 
0.000136227      4.63318     -171.310 
1.10622e-05      4.72331     -173.191 
1.03335e-05      4.74200     -173.340 
0.000615332      5.03830     -156.488 
6.19061e-05      5.04747     -156.533 
0.000523690      4.94595     -161.125 
0.000445204      5.03314     -156.338 
0.000960461      4.75585     -168.477 
0.000786902      4.93325     -161.198 
0.000140446      5.14799     -152.589 
0.000134548      5.01886     -156.142 
4.50905e-05      5.01059     -151.901 
2.22058e-05      5.09472     -157.008 
6.54958e-05      5.15687     -152.640 
8.42693e-05      5.10393     -157.052 
0.000124153      5.00177     -151.847 
6.20401e-05      5.16575     -152.691 
5.86942e-05      5.01378     -155.991 
9.63763e-05      5.17464     -152.742 
5.83768e-05      5.11314     -157.096 
0.000428186      4.53475     -169.582 
0.000127037      4.99295     -151.793 
0.000587391      4.75786     -168.359 
5.50058e-05      5.12235     -157.139 
7.12927e-05      5.18353     -152.792 
3.57070e-05      5.00465     -155.945 
6.87004e-05      5.12770     -157.286 
0.000113879      5.19243     -152.843 
5.02987e-05      4.93004     -161.308 
0.000121165      4.99961     -155.793 
0.000154138      4.98414     -151.738 
9.41097e-05      5.13692     -157.329 
0.000452043      4.92057     -161.270 
0.000115077      5.20133     -152.893 
9.76710e-05      5.14615     -157.372 
0.000172554      4.97534     -151.684 
0.000368002      4.52492     -169.559 
0.000135945      5.21023     -152.943 
0.000180041      4.99461     -155.641 
8.63853e-05      5.15539     -157.414 
0.000207904      4.90789     -161.344 
0.000405693      4.76765     -168.384 
9.69900e-05      5.16462     -157.457 
0.000142173      5.21914     -152.993 
0.000229403      4.96654     -151.629 
3.90952e-05      4.89842     -161.306 
8.36312e-05      5.17386     -157.499 
0.000198169      4.88574     -161.380 
9.19079e-05      5.22805     -153.043 
3.35065e-05      5.18693     -157.440 
0.000134027      4.51509     -169.536 
8.10837e-05      4.98964     -155.490 
0.000102657      5.19616     -157.482 
0.000128050      4.87627     -161.342 
7.77442e-05      5.23259     -152.945 
5.53156e-05      4.54032     -166.239 
2.70640e-05      4.76967     -168.266 
6.54909e-06      5.20540     -157.524 
0.000746632      2.41251      177.387 
0.00201456      2.96233     -174.771 
0.00185309      4.17713     -152.944 
0.000957079      2.44295      177.184 
0.00110543      2.99481     -162.110 
0.000463414      2.98839     -161.868 
0.000404957     0.968401     -163.811 
0.000145873      3.11708     -172.442 
0.000761886      2.85245     -158.833 
0.000612308      3.10717     -172.418 
0.000652190     0.978008     -163.974 
0.000737501      3.47248     -151.442 
0.000262189      2.47342      176.987 
0.000152492      2.48340      176.999 
4.27003e-05     0.987623     -164.134 
0.000158772      2.84677     -158.572 
0.000280538      1.00424     -164.995 
8.12267e-05      2.34173      177.797 
0.000197100      2.50392      176.795 
7.43922e-05      2.33174      177.788 
0.000111398      3.08869     -172.185 
0.000129061      1.01390     -165.141 
5.44290e-05      2.83746     -158.499 
3.64853e-05      2.53444      176.607 
0.00154005      1.46823     -144.145 
0.000649561      1.76284     -176.748 
0.000366647      1.77282     -176.766 
0.000455028     0.602079     -147.894 
7.80346e-05     0.669402     -166.171 
0.00111596      1.53209     -177.007 
0.000227266     0.667083     -167.005 
0.000119434     0.948683     -161.565 
3.50874e-05      1.78227     -177.105 
3.38254e-05      1.78281     -176.785 
0.000671352      1.46014     -143.915 
0.000138219      1.79226     -177.122 
0.000235444     0.958175     -161.754 
0.000105904     0.655133     -167.661 
5.59345e-05     0.645368     -167.471 
0.000130510      1.80225     -177.138 
0.000556267     0.593633     -147.381 
0.000138167     0.633482     -168.158 
0.000203846     0.967677     -161.940 
0.000100374      1.81224     -177.153 
7.76062e-05     0.611882     -168.690 
0.000175899     0.977190     -162.121 
2.09040e-05     0.590339     -169.261 
5.94718e-05      1.82176     -177.483 
4.03226e-05     0.580517     -169.077 
7.77920e-05      1.45207     -143.683 
5.70460e-05     0.549181     -169.509 
0.000174904      1.83175     -177.497 
0.000269655      1.38409     -139.982 
7.71642e-05      1.46240     -144.462 
2.71264e-05     0.539351     -169.315 
7.96297e-05     0.703420     -165.174 
5.98947e-05     0.508035     -169.796 
0.000240204     0.986711     -162.300 
0.000257813     0.498197     -169.592 
0.000146601      1.47054     -144.689 
7.62741e-06     0.691231     -165.763 
2.83989e-05      1.84174     -177.510 
9.99946e-05      1.85132     -177.833 
7.69345e-05     0.989798     -161.748 
2.40937e-05      1.78718     -174.864 
3.46352e-05     0.585235     -146.853 
5.60441e-06      1.77814     -174.514 
0.000198923      2.52058     -160.774 
5.73518e-05      2.53002     -160.849 
0.000573485      2.52389     -160.560 
0.000171874      2.65663     -164.499 
0.000340387      2.65398     -164.707 
5.56792e-05      2.51446     -160.484 
0.000184082      2.65136     -164.915 
5.17466e-05      2.41019     -160.362 
0.000100190      2.66363     -164.764 
8.32401e-05      2.40077     -160.282 
6.41297e-05      2.53665     -160.422 
8.67806e-05      2.39136     -160.201 
3.76793e-05      2.68821     -164.464 
6.10701e-05      2.64877     -165.124 
9.17213e-05      2.38195     -160.120 
4.55650e-05      2.54608     -160.498 
5.76375e-05      2.70054     -164.317 
1.19499e-05      2.63655     -165.279 
5.86641e-06      2.37255     -160.038 
0.00256174      3.21549     -144.877 
0.000683000      3.09845     -150.622 
3.92653e-05      3.22943     -144.834 
0.000224334      3.32122     -144.683 
0.000404628      3.10717     -150.713 
0.000361325      3.32701     -144.542 
0.000200830      3.20732     -144.774 
3.20261e-05      2.98436     -149.826 
3.14331e-05      2.97572     -149.730 
0.000303791      3.19338     -144.817 
3.08628e-05      2.96709     -149.632 
3.05610e-05      2.97935     -149.993 
0.000118141      3.11589     -150.803 
0.000285839      3.33282     -144.402 
5.95421e-05      2.95846     -149.534 
0.000113866      2.94985     -149.436 
0.000135787      3.12463     -150.892 
0.000133327      2.94124     -149.337 
0.000229421      3.34096     -144.502 
0.000171454      3.13337     -150.981 
0.000148247      2.93264     -149.237 
0.000411898      3.33865     -144.263 
0.000252463      3.18522     -144.713 
0.000179839      2.92406     -149.137 
0.000194272      3.14212     -151.069 
0.000274044      2.91548     -149.036 
0.000190604      3.27341     -141.450 
0.000152339      3.15087     -151.157 
3.68041e-05      3.34677     -144.363 
0.000900820      6.76832     -169.271 
0.000113465      6.77814     -169.287 
0.000145481      7.00548     -169.139 
4.14096e-05      6.75849     -169.255 
9.90365e-05      6.64050     -168.622 
0.000151253      7.01530     -169.155 
0.000127693      6.63069     -168.605 
1.88873e-05      6.74496     -169.406 
3.54436e-05      6.71804     -169.710 
8.71310e-05      7.02513     -169.170 
6.69512e-05      6.62288     -168.503 
1.70675e-05      6.71626     -169.794 
9.76489e-05      7.03683     -169.105 
4.92843e-05      6.71450     -169.878 
0.000229390      6.61308     -168.486 
7.58569e-05      6.71275     -169.962 
0.000157313      7.04665     -169.121 
5.58093e-05      6.71101     -170.046 
0.000170578      7.05647     -169.136 
