! Center RA: 02 38 38.93011,  Dec: +16 36 59.27450 (2000.0)
! Established model.
! Flux (Jy) Radius (mas)  Theta (deg)  Major (mas)  Axial ratio   Phi (deg) T \
! Freq (Hz)     SpecIndex
  0.205248    0.0223607      26.5651 
  0.111772    0.0200000      0.00000 
 0.0316120    0.0141421      45.0000 
0.00413660    0.0781025     -39.8056 
0.00793563    0.0921954     -40.6013 
 0.0115619    0.0200000      90.0000 
 0.0165578     0.106301     -41.1859 
 0.0258486    0.0316228      108.435 
 0.0468376     0.120416     -41.6335 
0.00472027    0.0360555      123.690 
 0.0376887    0.0447214      116.565 
 0.0661783     0.127279     -45.0000 
 0.0181116    0.0412311      104.036 
 0.0178846    0.0509902      101.310 
 0.0289179    0.0500000      90.0000 
0.000685352     0.134536     -48.0128 
 0.0476734     0.128062     -51.3402 
0.00773638    0.0608276      80.5377 
 0.0141605    0.0632456      71.5651 
0.00860972    0.0806226      60.2551 
0.000335060    0.0538516      111.801 
0.00130950     0.106301      48.8141 
0.000962197    0.0640312      141.340 
0.000317612     0.113137      45.0000 
0.000619612     0.134536      41.9872 
0.00150343    0.0761577      156.801 
0.00207245     0.142127      39.2894 
0.00869508     0.136015     -53.9726 
0.00244557    0.0921954      167.471 
0.00243017     0.150000      36.8699 
0.00219833     0.158114      34.6952 
0.00416828     0.101980      168.690 
0.00368582     0.100499      174.289 
0.00241510     0.166433      32.7352 
0.00177048     0.174929      30.9638 
0.00243468     0.142127     -50.7106 
0.00226998     0.183576      29.3578 
0.00143294     0.122066     -145.008 
0.00138827     0.192354      27.8973 
0.00109080     0.148661     -47.7263 
0.00130162     0.104403      163.301 
0.000874861     0.155563     -45.0000 
0.00777727     0.201246      26.5651 
0.00193505     0.128062     -141.340 
0.000806766     0.230217     -55.6197 
0.00106985     0.156205     -39.8056 
0.00148667     0.107703      158.199 
0.000732635     0.164012     -37.5686 
0.00209927     0.236008     -53.6156 
0.000121688    0.0900000      90.0000 
0.000570348     0.174929     -30.9638 
0.00246214     0.134536     -138.013 
0.00171846     0.111803      153.435 
0.000638814     0.187883     -25.2011 
0.00264943     0.193132     -21.2505 
0.00207880     0.116619      149.036 
0.000957575     0.242074     -51.7098 
0.00321624     0.141421     -135.000 
0.000736464     0.248395     -49.8991 
0.00265535     0.189737     -18.4349 
0.00212720     0.122066      145.008 
0.000525014     0.254951     -48.1798 
0.000367403     0.261725     -46.5482 
0.00208990     0.196977      23.9625 
0.000243818     0.268701     -45.0000 
0.00217948     0.148661     -132.274 
0.00214819     0.275862     -43.5312 
0.00196243     0.128062      141.340 
0.000826185     0.186815     -15.5241 
0.000254392     0.193132      21.2505 
2.41999e-05     0.134536      138.013 
0.00421052     0.270000     -180.000 
0.000513900     0.210238     -154.654 
0.000521596     0.280000     -180.000 
0.000567917     0.201246     -153.435 
0.000504312     0.290000     -180.000 
0.000617160     0.192354     -152.103 
0.000251116     0.300000     -180.000 
-0.000978078     0.254951     -41.8202 
-0.000444906     0.184391     -102.529 
-0.000437807     0.186815     -105.524 
-0.000239175     0.262488     -40.3645 
-0.000647718     0.189737     -108.435 
-0.00113471     0.193132     -111.251 
-0.000446809     0.270185     -38.9910 
-0.000141855    0.0316228      161.565 
0.000328472     0.269258      15.0685 
-0.00146366    0.0223607      153.435 
0.00182700     0.350000      180.000 
0.00275205     0.306757     -70.9744 
-0.000875045     0.278029     -37.6942 
9.36795e-05     0.177200     -16.3895 
-0.00114944     0.264197      150.524 
9.77412e-05     0.272029      17.1027 
3.41658e-05     0.170880     -20.5560 
0.000267698     0.161555     -21.8014 
0.000305027     0.147648     -28.3008 
0.000117024     0.275136      19.0935 
-0.000578988     0.288444     -33.6901 
0.000206748     0.138924     -30.2564 
0.000346726     0.128062     -38.6598 
-0.000172259     0.300167     -29.9816 
0.000305821     0.120416     -41.6335 
-0.000716712     0.389487     -48.1221 
0.000275142     0.278568      21.0375 
0.000198555     0.113137     -45.0000 
0.000190528     0.350143     -178.363 
-0.000114078     0.295296     -28.3008 
0.000301420     0.108167     -56.3099 
-4.11313e-05     0.254558     -45.0000 
-6.99453e-05     0.182483     -99.4623 
-7.25047e-05     0.214709     -62.2415 
1.63747e-05     0.269258      21.8014 
0.00122588      4.99860      119.745 
0.000480191      3.69001    -0.155273 
0.000280605      1.69806     -30.0378 
0.000413974      3.71000      0.00000 
-0.00123006      2.02425      150.396 
0.00111940      3.94458      19.8590 
0.000268404      4.60109     -10.7726 
-0.00133702      4.18294     -64.9666 
-0.000392522      2.05275     -153.060 
0.000694085     0.990454      35.1342 
0.00141443      1.68941     -30.2076 
0.00113803      4.40409     -163.376 
-0.000359179      2.87313     -101.036 
-0.000817522      4.49814     -170.014 
0.000613582      4.61091     -10.7494 
0.000284275     0.996243     -54.3955 
-0.00207763      4.92946     -39.5675 
0.000878169      6.54313     -43.4518 
-0.00125439      2.16335     -6.36944 
-0.00110889      2.03931     -153.184 
4.04413e-05      3.70000      0.00000 
0.000231647      5.17279     -33.1678 
0.000339067      3.54651      116.999 
0.000396671      6.88033     -45.4122 
0.00107077      2.51072     -91.3694 
0.000398659      4.72823     -42.4286 
0.000192148      5.56893     -25.4147 
0.00123134     0.988130     -54.0579 
-0.000286178      4.11011      90.4182 
7.50627e-05      6.55001     -43.5153 
0.000184023      1.96352      173.273 
-0.000218616      5.00274     -161.710 
0.000571874      5.00357      119.844 
0.000277222      6.14955      138.560 
-7.20517e-05      3.91676     -176.634 
0.000108589      1.62250     -123.690 
-0.000673502      4.25361      85.4153 
0.000241729      5.56421     -25.5519 
-0.000177036      4.47790     -174.875 
-0.000144698      3.99451      107.482 
0.000482402      4.85128     -6.50974 
0.000192579      3.54216      117.216 
0.00106359     0.998649      34.8040 
0.000495312      5.18117     -33.1073 
0.000379647      3.72941      5.84818 
0.000564600      2.70512     -77.4023 
0.000490441      6.77263      47.3336 
-0.000202440      3.49046     -94.4365 
7.09548e-05      1.91050      10.2512 
-0.000172696      3.81345      175.186 
0.000932530      1.97345      173.307 
-0.000324395      4.25699     -149.821 
0.000411095      3.50143      91.6366 
-0.000622881      3.99752      107.619 
3.50115e-05      5.32888      61.6556 
-0.000225640      2.87507     -101.232 
0.000169647      1.92034      10.1981 
-0.000325267      4.99325     -161.674 
-0.000226040      3.70086      91.2386 
0.000642974      5.33364      61.5610 
-0.000754447      1.93166      92.3736 
0.000220838      1.62807     -123.983 
0.000166685      3.65604     -93.2928 
0.000336323      3.60801      36.7746 
-0.00115638      6.57198      139.134 
0.000322509      1.73626      111.985 
-0.000163082     0.875728     -83.4431 
-0.000126637      5.26024     -115.445 
0.000126756      1.25447     -171.289 
0.000130815      4.69359      166.822 
-0.00109576      4.46706     -174.991 
-0.000244061      3.50184      163.066 
-0.000204726      3.92674     -176.642 
-0.000301392      3.81430      175.037 
-0.000155281      4.11005      90.2788 
0.000125613      1.92844      9.85308 
-6.26498e-05      2.63093      120.366 
0.000208500      4.62074     -10.7263 
-0.000155443      2.88725      123.415 
0.000764519      3.65662     -93.4493 
0.000330664      4.70333      166.850 
3.16926e-05      3.43216     -76.6926 
0.000255558      6.15705      138.621 
0.000238305      3.07761      107.199 
0.000494040      3.42475     -76.4913 
-0.000415573     0.884590     -84.1605 
0.000974106      4.69315      103.681 
-3.10423e-05      3.49125     -94.6001 
0.000355366      6.88735     -45.3529 
0.000615049      4.69622     -72.1438 
-0.000229210      3.48128     -94.6133 
8.80775e-05      1.97649     -18.8933 
-0.000143758      4.77809      158.644 
0.000257403      1.74003      112.291 
-3.01108e-05      3.61001     -152.086 
-0.000917098      5.00589     -161.601 
0.000226726      1.93830      9.80250 
-5.95808e-05      5.46145      115.486 
-0.000455349      2.87891      123.524 
-0.000535692     0.382099      42.8789 
-2.97275e-05      4.99640     -161.565 
-5.88376e-05      3.60588     -151.871 
-8.80210e-05      3.82426      175.050 
0.000423770      4.85644     -33.9191 
-0.000213030      3.71086      91.2353 
-2.94011e-05      5.13693      14.1986 
-0.000209826      2.68287      73.3212 
0.000494362      3.55006      179.677 
-0.000277412      5.45674      115.626 
5.80069e-05      5.45476     -32.1167 
-2.88113e-05      2.52976     -103.487 
0.000112731      1.72192      78.9511 
-0.000134644      5.11509      14.1449 
5.58191e-05      3.87525     -101.310 
0.000264830      4.97993      122.286 
0.000165587      6.16003      36.6839 
2.85298e-05      1.26436     -171.357 
-8.34994e-05      3.59707     -151.796 
0.000244703      5.46323     -32.0610 
-8.29458e-05      2.86332     -101.074 
5.56948e-05      3.95399      19.8098 
-0.000138438      4.54674      105.565 
-8.08739e-05      4.11001      90.1394 
0.000415846      3.73936      5.83256 
-0.000108195      3.49285     -150.499 
-0.000129193      3.69287     -168.599 
0.000442309      4.65842     -176.554 
0.000100232      4.20777      134.133 
0.000212935      4.71535      166.759 
-0.000226519      3.51141      163.113 
0.000230318      3.07467      107.021 
0.000693252      4.86009     -6.37925 
-0.000330507      1.14612     -60.7512 
-0.000276798      3.74214      8.60647 
5.46702e-05      3.59344      160.153 
-0.000205755      3.49468     -33.3263 
0.000477988      6.53587     -43.5121 
-0.000159993      5.42543     -139.410 
0.000483281      4.21865      176.330 
0.000178999      4.06591      138.390 
0.000156430      3.61602      36.6798 
-2.72692e-05      4.56968     -104.705 
2.72550e-05      4.35013      144.922 
-7.58766e-05      2.52004     -103.540 
-0.000131829      3.81518      174.887 
-0.000319995      5.10221     -24.3045 
-7.98149e-05      3.94730     -176.514 
0.000104291      1.72386      78.6249 
-0.000649465      4.55637      105.531 
0.000369529      1.74385      112.595 
0.000851388      4.69080      103.562 
-0.000276936      4.99890      106.622 
5.27276e-05      3.59685      160.003 
0.000273251      1.73367      78.6901 
0.000102936      1.94815      9.75242 
-0.000126177      3.48210     -94.7773 
0.000100219      4.34195      144.846 
-0.000125788      3.58826     -151.721 
0.000344239      3.83329     -25.4955 
0.000537152      4.84814     -33.9851 
7.74194e-05      1.26905      49.1539 
-0.000122516      4.58190     -104.794 
-0.000313943      2.86526     -101.271 
-7.73726e-05      1.78239     -119.585 
0.000102229      6.16209      36.5538 
-0.000126323      5.05215     -8.99621 
-0.000144976      4.00056      107.756 
-0.000348550      2.16449     -6.63251 
-0.000202514      4.77445      158.756 
0.000573866      4.81680      142.083 
0.000267957     0.930215     -116.841 
-0.000530036      4.29540      14.4245 
0.000481805      1.98338      173.341 
-0.000240465      3.95728     -176.523 
9.96990e-05      3.30651      148.858 
5.12612e-05      5.47171     -32.0054 
-7.36834e-05      2.03295      150.535 
0.000146015      3.60624      160.058 
-0.000264504      5.41784     -139.341 
-0.000170963      5.45242      115.531 
0.000538482      3.56006      179.678 
-9.79052e-05      3.50156     -150.580 
0.000340727      4.57158      91.5041 
4.84620e-05      4.62261     -10.8481 
0.000170431      2.52097     -91.5911 
-0.000303143      2.78485     -140.537 
7.27682e-05      2.88735      74.3272 
-0.000123060      3.81608      174.738 
0.000122669      5.47702     -32.0941 
0.000235917      4.72508      166.787 
0.000560726      4.70574     -72.1811 
7.36986e-05      1.34183     -152.480 
-0.000352544      1.79602     -119.705 
-9.60659e-05      4.11000      90.0000 
0.000297297      4.98528      122.383 
2.49303e-05      3.53760      117.072 
0.000718607      3.62200      36.8066 
-0.000144857      3.48415     -119.582 
-9.19468e-05      1.35624      56.4271 
-0.000555295      5.06203     -8.97851 
9.21364e-05      6.76586      47.3959 
0.000143235      6.17013      36.4985 
0.000583668      3.79563      68.0304 
-0.000591614      5.12723      14.2260 
9.50856e-05      1.27562      48.8141 
0.000116433      1.95635      9.41417 
9.24226e-05      5.18955     -33.0470 
-0.000117774      1.71511      148.349 
4.77037e-05      1.67242      3.08481 
2.41207e-05      2.63532     -151.685 
-0.000118120      6.56544      139.200 
6.89624e-05      6.16456      138.683 
2.37704e-05      1.33297     -152.281 
0.000332230      5.48549     -32.0386 
-0.000442568      3.49757     -33.0994 
-0.000582488      1.26827     -162.565 
-0.000528006     0.503587     -83.1572 
-4.69118e-05      3.82697      174.602 
-0.000557176      2.84478     -117.646 
0.000107853      2.70732     -77.1957 
0.000247863      3.42710     -76.3287 
-6.97102e-05      4.86368     -78.7363 
0.000223627      6.51955     -132.327 
9.10238e-05      3.31507      148.947 
0.000554387     0.870919      68.4429 
-4.62406e-05      3.48294     -94.9412 
-0.000575189      5.00177      106.732 
0.000135742      1.32883     -151.699 
4.62087e-05      5.33841      61.4666 
2.33196e-05      4.84663      142.208 
-2.32856e-05      3.55788     -151.274 
-0.000154811      2.87340      123.358 
0.000405869      5.22793     -63.5330 
-4.61706e-05      4.43788     -56.9545 
0.000464250      6.37122      44.5549 
0.000859671      4.21930      176.195 
0.000163474      4.07339      138.483 
-0.000632849      6.57301      139.257 
0.000670243      4.66840     -176.561 
0.000295257      4.83873      142.135 
0.000405902      5.75608      122.586 
-2.30730e-05      4.91451     -72.2287 
-0.00167728      4.30509      14.3913 
-0.000515698      5.06830      93.2802 
0.000106292     0.980051     -53.7147 
0.000273882      2.52127     -91.8183 
-0.000112559      5.44772      115.671 
-0.000213998      3.54911     -151.196 
0.000248940      1.68241      3.06649 
0.000133512      6.17817      36.4433 
-0.00115216      4.92403     -72.2642 
-6.78514e-05      4.86565     -78.6208 
8.36581e-05      3.50173      91.8001 
-0.000291486      3.50595     -33.0102 
-0.000214708      5.08382     -28.6824 
-0.000128703      3.47922     -119.438 
-2.27298e-05      4.26358      85.4261 
0.000110652      4.32057      11.7521 
-0.000154494      4.42950     -56.8839 
-0.000364380      5.18664      33.1998 
-2.26361e-05      3.82792      174.453 
0.000668797      4.73466      145.672 
0.000318893      5.32962      61.4153 
2.25558e-05      5.75070      122.502 
-0.000169759      4.11001      89.8606 
-0.000171609      1.72363      148.523 
2.24876e-05      5.00728      119.688 
2.24815e-05      3.65887     -17.9893 
0.000454623      3.54359     -104.546 
6.57374e-05      5.18410     -32.9544 
0.000270555      3.65724     -93.6057 
6.44996e-05      3.07176      106.842 
0.000159568      2.54332      31.0024 
0.000356634     0.916788     -116.565 
-0.000299180      4.87545     -78.6440 
-0.000167562      3.68110     -168.721 
-0.000599498      4.59628      135.353 
0.000213262      4.74684      166.725 
-0.000170775      1.21202     -25.9308 
0.000107460      1.74244      113.328 
-0.000125443      4.00362      107.892 
-0.000203123      3.74066      8.45503 
2.20255e-05      5.28380     -133.543 
-0.000127698      3.96727     -176.532 
6.43321e-05      4.21474      134.231 
-2.18827e-05      2.03679      150.918 
-0.000559137      5.44340      115.576 
2.18295e-05      3.61565      160.112 
-8.55728e-05      5.41026     -139.272 
-2.18215e-05      3.51027     -150.660 
-8.37411e-05      3.82890      174.304 
-4.10404e-05      1.15104     -60.3169 
0.000104750      1.28222      48.4778 
0.000389247      5.29105     -133.468 
-0.000168073      4.39056     -52.2166 
0.000282994      6.17117      138.613 
-2.17398e-05      5.36672      162.207 
8.54013e-05      3.32364      149.036 
-0.000142322      5.11132     -24.2584 
0.000138838      1.96621      9.36651 
0.000122963      1.64757     -18.7649 
-0.000217832      1.94165      92.3614 
6.23619e-05      3.66838     -17.9410 
-0.000115958      4.39897     -30.7627 
2.14653e-05      1.45836     -137.779 
8.08686e-05      5.00234      119.589 
0.000205790      1.46578     -138.042 
-0.000134128      5.06360     -9.09028 
4.16562e-05      4.31984      144.802 
0.000161538      5.19249     -32.8943 
0.000102829      4.33036      11.7251 
0.000102758      6.18622      36.3883 
-0.000118346      2.02805      150.781 
-0.000362815      4.42405     -56.9924 
0.000355491      6.88024     -45.2944 
0.000386214      3.57006      179.679 
-4.05932e-05      4.57936     -104.674 
2.10144e-05      3.61906      159.963 
2.09653e-05      3.94119      19.7223 
-0.000153468      3.54035     -151.118 
-4.12800e-05      2.79893     -140.509 
-0.000199766      3.71109      91.3897 
-4.08725e-05      1.37011      56.3099 
0.000118828      3.33222      149.125 
0.000152274      3.98580      55.6321 
-0.000150640      2.86505      123.468 
-0.000190555      5.41679     -139.192 
0.000290589      1.74642      113.629 
0.000210009      3.82688      107.488 
0.000234959      4.75657      166.753 
0.000119355      5.49397     -31.9833 
6.03446e-05      3.79438     -85.0106 
0.000279021      4.20761     -119.002 
-4.03946e-05      4.83141      6.53663 
-0.00127395      4.87743     -78.5288 
-0.000282180      1.22102     -25.7256 
-3.96545e-05      4.92197     -44.1768 
5.93995e-05      5.14339     -95.4667 
2.02503e-05      4.22172      134.328 
2.02064e-05      1.99331      173.374 
0.000112955      4.39451     -163.338 
-7.85909e-05      3.98784     -176.406 
2.01274e-05      1.32004     -151.493 
0.000135302      4.88881      16.3962 
-0.000134183      1.73217      148.696 
-0.000113573      2.79122     -140.378 
-0.000274240      5.07903     -28.5835 
-0.000173610      4.39669     -52.1136 
3.92433e-05      3.62846      160.017 
3.93953e-05      4.31167      144.725 
0.000153826      1.00688      34.4792 
5.72190e-05      3.06888      106.663 
1.98272e-05      4.23586      134.330 
0.000133341      6.19427      36.3334 
-0.000305065      3.51899     -150.740 
-0.000205656      4.84134      6.52316 
0.000374669      4.70881     -72.0653 
0.000220029      3.16128      50.5193 
0.000227340      1.47411     -138.851 
-0.000307250      3.94103     -1.30856 
0.000215032      2.00212      173.691 
0.000165652      2.53819      30.8089 
3.81770e-05      1.28888      48.1450 
0.000506557      3.79526     -84.8602 
9.41769e-05      5.29793     -133.547 
0.000114203      4.24285      134.427 
-0.000544785      5.57460     -127.713 
-0.000194016      3.47432     -119.295 
-0.000145921      3.67129     -168.690 
1.94523e-05      2.42986     -172.670 
-0.000235696      4.00671      108.028 
-3.82463e-05      4.04821     -162.460 
0.000131182      5.49927     -32.0716 
-5.75967e-05      4.39847     -52.2964 
-7.52227e-05      4.11005      89.7212 
-9.25694e-05      3.90006      140.514 
-0.000110258     0.396232      42.9546 
0.000311700      4.82470      142.156 
0.000104155      3.67147     -18.0895 
-0.000471327      6.58059      139.314 
0.000305620      2.52960      30.9249 
0.000233974      5.20089     -32.8345 
-0.000261488      3.50892     -32.7843 
-0.000132888      4.93584     -39.6569 
0.000178007      5.11789     -76.6697 
0.000146816      5.40281      27.3239 
-5.46886e-05      3.82991      174.155 
-0.000159695      4.78377      158.799 
0.000439090      1.66048     -9.00850 
9.06109e-05      1.73566      78.3664 
0.000263202      4.85015     -6.39237 
0.000357751      3.54611     -104.702 
