! Center RA: 03 39 30.93779,  Dec: -01 46 35.80420 (2000.0)
! Established model.
! Flux (Jy) Radius (mas)  Theta (deg)  Major (mas)  Axial ratio   Phi (deg) T \
! Freq (Hz)     SpecIndex
 0.0271778     0.270740      85.7636 
0.00627855     0.260192      87.7974 
0.00164826     0.483011      62.9044 
 0.0104003     0.487545      64.4861 
 0.0171193     0.716938      67.0113 
 0.0122793     0.260768      85.6013 
0.00151360     0.703847      67.4428 
0.00200635     0.720902      66.2796 
0.00810219     0.492443      66.0375 
0.00914260     0.250200      87.7094 
0.000572010     0.470106      51.9112 
0.00328060     0.506952      67.9887 
0.00267929     0.468615      50.1944 
0.00109307     0.700071      68.1986 
0.000532096     0.696419      68.9625 
0.00104183     0.692893      69.7343 
0.00463552     0.512640      69.4440 
0.000510050     0.674685      78.0239 
0.000506203     0.475079      49.2679 
0.000504138     0.680661      79.8457 
0.000500447     0.707743      66.6951 
0.000984838     0.467547      48.4682 
0.000494384     0.687314      81.6341 
0.000489711     0.711758      65.9558 
0.000485554     0.685930      82.4606 
0.00186960     0.474236      47.5638 
0.000479040     0.695845      82.5686 
0.000943569     0.715891      65.2249 
0.00649788     0.835225      73.3008 
0.000871856     0.522015      69.8293 
0.000930015     0.694622      83.3865 
0.00179261     0.528110      71.2220 
0.000907357     0.706824      64.8852 
0.000451889     0.703491      84.2894 
0.000885516     0.481041      46.6847 
0.000881530     0.702567      85.1009 
0.000871984     0.711126      64.1556 
0.00169261     0.473814      45.8551 
0.000430052     0.701783      85.9144 
0.00206138     0.250000      90.0000 
0.000425221     0.575674      72.8241 
0.000422967     0.711758      85.9717 
0.00124291     0.715542      63.4349 
0.00163210     0.711126      86.7755 
0.000410070     0.566127      72.5252 
0.00274147     0.480833      45.0000 
0.000787485     0.720069      62.7232 
0.000769192     0.585235      73.1132 
0.00116154     0.710634      87.5805 
0.00189350     0.260000      90.0000 
0.00108772     0.563205      73.4956 
0.00112047     0.724707      62.0205 
0.000747126     0.720278      88.4089 
0.00145504     0.487955      44.1697 
0.00178454     0.720069      89.2043 
0.00222645     0.572800      73.7798 
0.00338194     0.260192      92.2026 
0.00171483     0.729452      61.3269 
0.00205708     0.481041      43.3153 
0.00134760     0.720000      90.0000 
0.00161895     0.838153      72.6460 
0.00342476     0.488365      42.5104 
0.000968123     0.730069      90.7848 
0.00124414     0.734302      60.6422 
0.00183540     0.730274      91.5694 
0.00427943     0.260768      94.3987 
0.00176232     0.841190      71.9958 
0.00168437     0.739256      59.9667 
0.00171634     0.730616      92.3533 
0.00196789     0.495782      41.7295 
0.00175045     0.570088      74.7449 
0.00133839     0.844334      71.3505 
0.00700210     0.741080      93.0941 
0.00282620     0.489183      40.8554 
0.00123843     0.744312      59.3003 
0.00574132     0.261725      96.5819 
0.00192371     0.847585      70.7100 
0.00367990     0.731095      93.1364 
0.000240961     0.503289      40.9717 
0.00113222     0.813941      63.7498 
0.00353581     0.496790      40.1009 
0.000450775     0.749467      58.6429 
0.00183111     0.850941      70.0744 
0.000835624     0.740945      58.2405 
0.000408290     0.567539      75.7189 
0.000963716     0.818413      63.1219 
0.00384112     0.504480      39.3693 
0.000573166     0.746257      57.5877 
0.000189186     0.570701      78.8870 
 0.0105765     0.800999      92.8624 
0.00503134     0.263059      98.7462 
0.00138413     0.854400      69.4440 
0.000868449     0.737835      57.1715 
0.000179770     0.575587      82.0107 
0.000175517     0.574282      82.9987 
0.000496149     0.822982      62.5009 
0.000333563     0.573149      83.9910 
0.000163241     0.498197      38.4802 
0.000162106     0.729452      56.7456 
0.00319654     0.512250      38.6598 
0.00218878     0.721110      93.1798 
0.00105191     0.734983      56.0937 
0.00132243     0.857963      68.8187 
0.000157237     0.572189      84.9869 
0.000445707     0.827647      61.8868 
0.000297311     0.580775      87.0391 
0.000148863     0.571402      85.9858 
0.000274350     0.580345      88.0251 
0.00130515     0.726705      55.6539 
0.000137641     0.570789      86.9872 
0.000396974     0.832406      61.2797 
0.00147278     0.526308      38.8298 
0.00131509     0.861626      68.1986 
0.000382361     0.580086      89.0122 
0.00373959     0.711126      93.2245 
0.000471810     0.570088      88.9949 
0.000570372     0.837257      60.6795 
0.000471154     0.732393      55.0080 
0.00162743     0.272947      98.4270 
0.000845530     0.492037      37.5686 
0.000225043     0.718471      55.2040 
0.00203148     0.534135      38.1572 
0.000434493     0.570000      90.0000 
0.00159682     0.724224      54.5543 
0.00109545     0.865390      67.5839 
0.000392678     0.842200      60.0864 
0.000686886     0.570088      91.0051 
0.000387258     0.281603      96.1155 
0.00190216     0.291548      95.9061 
0.000693618     0.570351      92.0096 
0.00347275     0.548179      38.3333 
0.000344152     0.847231      59.5002 
0.00115010     0.730069      53.9149 
0.000825841     0.570789      93.0128 
0.000370325     0.852350      58.9210 
0.00107696     0.869253      66.9745 
0.00150271     0.722011      53.4475 
0.00125902     0.301496      95.7106 
0.00123693     0.500000      36.8699 
0.000497287     0.250000      106.260 
0.00145411     0.571402      94.0142 
0.000260007     0.857555      58.3487 
0.000894477     0.701142      93.2705 
0.000287514     0.862844      57.7835 
0.000994548     0.728011      52.8153 
0.000389212     0.246982      111.371 
0.000439531     0.868217      57.2251 
0.000330275     0.873212      66.3706 
0.000182125     0.311448      95.5275 
0.00675402     0.941913      86.3478 
0.00132158      1.47221      76.2469 
0.00108629      1.29124      82.4347 
0.00120799      1.46986      76.6256 
0.00162058      1.29259      81.9953 
0.00110480      1.46758      77.0054 
0.000516604      1.46537      77.3864 
0.00212574      1.29402      81.5568 
0.000167452      1.46328      79.7652 
0.000165102      1.46154      80.1510 
0.000324456      1.45986      80.5377 
0.00579709     0.932631      85.6955 
0.000159086      1.45825      80.9252 
0.000312229      1.45523      81.7029 
0.000305299      1.46113      82.9236 
0.000150036      1.47462      75.8695 
0.000442874      1.45993      83.3131 
0.000144670      1.47963      75.1185 
0.000286011      1.45880      83.7032 
0.000279189      1.45774      84.0939 
0.000277628      1.48489      74.3726 
0.00111394      1.29553      81.1193 
0.000536642      1.45674      84.4851 
0.000135476      1.48081      73.5231 
0.000132966      1.48368      73.1528 
0.000389170      1.45582      84.8768 
0.000386378      1.48661      72.7839 
0.000618930      1.45496      85.2691 
0.000125186      1.48960      72.4165 
0.000364940      1.49265      72.0506 
0.000813644      1.45417      85.6617 
0.000236085      1.49576      71.6862 
0.000343107      1.49893      71.3233 
0.000867015      1.45344      86.0548 
0.000331367      1.50217      70.9620 
0.00435462      1.50546      70.6022 
0.000103656      1.45279      86.4483 
0.000102866      1.44170      87.2170 
0.00125749      1.44125      87.6141 
0.000518875      1.44087      88.0114 
0.00255363      1.43087      87.9975 
0.000380233      1.46492      85.3013 
0.00128297     0.933435      85.0834 
7.10869e-05      1.46414      85.6913 
0.000426699      1.47489      85.3331 
0.00151762      1.49603      70.4750 
0.000451480      1.42088      87.9834 
0.000164145      1.30115      82.4927 
0.000212160      1.48408      85.7493 
0.000209599      1.41089      87.9691 
0.000775819     0.310161      88.1524 
0.00305016     0.460435      34.3803 
0.00265127     0.310000      90.0000 
0.00403949     0.468722      33.6901 
0.00359531     0.300167      91.9091 
0.00403287     0.477074      33.0239 
0.00401422     0.300666      93.8141 
0.00302753     0.485489      32.3807 
0.00339583     0.292746      97.8533 
0.00145346     0.490918      33.3664 
0.00133769     0.499300      32.7352 
3.62703e-05     0.496488      62.4027 
3.52250e-05     0.501199      61.3895 
   1.00127    0.0100000      0.00000 
  0.140552    0.0141422      45.0001 
 0.0300585    0.0200000      0.00000 
0.00680064    0.0223607     -26.5649 
0.00340041    0.0316228      108.435 
0.00662658    0.0412311      104.036 
 0.0129311    0.0360555     -33.6900 
 0.0156770    0.0538517      111.801 
 0.0180125    0.0500000     -36.8699 
 0.0228926    0.0670820      116.565 
 0.0344648    0.0640312     -38.6598 
0.00535726    0.0721110      123.690 
 0.0360990    0.0806226      119.745 
 0.0666682    0.0781025     -39.8055 
 0.0189400    0.0860233      125.538 
 0.0369322    0.0943398      122.005 
 0.0283288    0.0848528     -45.0000 
 0.0362361    0.0894427      116.565 
 0.0387937    0.0781025     -50.1944 
 0.0149232    0.0984886      113.962 
 0.0238672    0.0948683      108.435 
0.00356330    0.0860232     -54.4623 
 0.0273101    0.0806226     -60.2551 
 0.0132120    0.0921954      102.529 
0.00670328     0.101980      101.310 
 0.0151146    0.0761577     -66.8014 
 0.0188721     0.100499      95.7106 
 0.0172565    0.0854400     -69.4439 
0.00849924     0.100000      90.0000 
0.00780521    0.0824621     -75.9637 
0.000248589     0.134536      131.987 
0.000490494     0.101980      78.6901 
0.000241935     0.148661      137.726 
0.000239891     0.104403      73.3008 
0.000237764     0.156205      140.194 
0.000469664     0.107703      68.1986 
0.000232089     0.172047      144.462 
0.000230153     0.111803      63.4349 
0.000453434     0.180278      146.310 
0.000671806     0.116619      59.0363 
0.000220570     0.188680      147.995 
0.000433889     0.122066      55.0080 
0.00925528     0.197231      149.534 
0.000422929     0.128063      51.3402 
0.00120874     0.134536      48.0128 
0.00112458     0.141421      45.0000 
0.00104756     0.148661      42.2737 
0.000503106    0.0894427     -63.4349 
0.00144413     0.156205      39.8056 
0.000163381    0.0943398     -57.9946 
0.000634812     0.127279     -45.0000 
0.000302652     0.134536     -41.9872 
0.00144852     0.164012      37.5686 
0.000295246     0.142127     -39.2894 
0.000145136    0.0824620     -104.036 
0.000143566     0.150000     -36.8699 
0.000141805    0.0854400     -110.556 
0.000280189     0.158114     -34.6952 
0.000138083     0.130384     -147.529 
0.000272813     0.166433     -32.7352 
0.000914868     0.172047      35.5377 
0.000397940     0.138924     -149.744 
0.000133718     0.174929     -30.9638 
0.00234188     0.183576     -29.3578 
0.000378523     0.147648     -151.699 
0.00127491     0.180278      33.6901 
0.000241640     0.156525     -153.435 
0.000461435     0.165529     -154.983 
0.000327273     0.174642     -156.371 
0.00472672     0.183576      29.3578 
0.00360715     0.183848     -157.620 
0.00529607     0.188680     -32.0054 
0.00396395     0.202485      147.095 
0.000866069     0.180278     -160.560 
0.000863492     0.208087      144.782 
0.00109754      1.69956      64.1888 
0.000205356      1.69056      64.0412 
0.000197807      1.28845      74.2379 
0.000316244      1.28445      73.2580 
0.000399700      1.28577      74.6667 
0.000178066      1.28160      73.6861 
0.000686085      1.28950      66.2180 
0.00138251      1.70394      63.8861 
0.00302706      1.83439      72.5528 
0.000443707      1.28316      75.0973 
0.00192369      1.28860      65.2249 
0.000573034      1.28062      75.5297 
0.000547737      1.27816      75.9638 
0.000891215      1.71732      63.7334 
0.000490227      1.27577      76.3995 
0.00193819      1.04924      100.989 
0.00158651      1.39607      95.3431 
0.000465952      1.40698      95.7106 
0.00145128    0.0670820     -116.565 
0.000404439    0.0721110     -123.690 
0.000211323      1.05119      101.524 
0.000255212    0.0860232     -125.538 
4.88889e-05      1.03942      101.094 
0.00208631      4.90202      53.2937 
5.59149e-05      4.38416      53.6267 
0.000570168      4.37824      53.7321 
0.000299072      4.90800      53.2001 
0.000148577      4.91400      53.1068 
0.000143092      4.92800      53.0836 
0.000495282      4.37233      53.8377 
0.000257434      4.92001      53.0136 
9.13396e-05      4.93401      52.9908 
0.000263027      5.34605      53.3659 
0.000167715      4.36866      54.1269 
0.000244339      5.35407      53.4297 
4.13800e-05      4.40459      52.1935 
4.06278e-05      4.45314      50.3756 
4.01716e-05      4.45953      50.2767 
3.99124e-05      4.36281      54.2333 
0.000406219      5.36004      53.3439 
7.87599e-05      4.46593      50.1780 
0.000154085      4.35929      54.5234 
3.87073e-05      4.47876      49.9815 
0.00444845      4.49165      49.7861 
3.73547e-05      4.90637      56.0508 
0.000144065      4.35349      54.6306 
0.000107222      5.06028      50.7743 
3.64940e-05      4.90080      56.1478 
7.13771e-05      4.39847      52.2964 
3.58371e-05      4.90355      56.3099 
3.54729e-05      4.64011      56.0702 
3.50624e-05      4.89801      56.4073 
3.48384e-05      4.62897      56.2756 
6.82318e-05      4.61790      56.4820 
0.000195635      5.36601      53.2582 
0.000304811      5.05253      50.7026 
3.36896e-05      4.89248      56.5048 
3.35823e-05      4.34771      54.7381 
3.34304e-05      4.89009      53.4816 
3.32776e-05      4.61239      56.5856 
3.29467e-05      4.60689      56.6894 
3.27181e-05      4.39420      52.5825 
3.26006e-05      4.88984      56.7649 
3.23796e-05      4.33866      55.1378 
6.41864e-05      4.60140      56.7934 
0.000207171      4.88436      56.8630 
0.000146994      4.38813      52.6862 
0.000119586      4.32666      56.3099 
6.21916e-05      4.59593      56.8977 
3.10686e-05      4.87016      53.6007 
0.000121066      5.37200      53.1728 
6.06492e-05      4.59048      57.0023 
8.73680e-05      4.59344      57.1748 
2.91991e-05      4.86424      53.6955 
0.000169237      5.39802      52.9815 
8.37504e-05      4.58803      57.2798 
0.000175561      4.85832      53.7905 
0.000103887      4.33499      56.3832 
0.000269588      4.89274      56.9270 
2.70928e-05      4.57421      57.3175 
5.31111e-05      4.58263      57.3850 
5.33654e-05      5.40404      52.8969 
0.000231409      4.37800      53.0778 
0.000213118      5.04480      50.6307 
2.61477e-05      5.42409      52.7921 
5.17720e-05      4.57725      57.4904 
0.000125846      5.43015      52.7080 
7.30346e-05      4.38208      52.7901 
9.89602e-05      4.56882      57.4230 
0.00148937      5.45023      52.6045 
0.000116398      4.56344      57.5288 
4.65500e-05      4.34332      56.4563 
0.000148686      4.37604      52.8944 
0.000108223      4.55808      57.6349 
4.34080e-05      4.35165      56.5290 
4.23933e-05      4.85242      53.8858 
0.00101187      4.57079      58.3268 
0.000131770      4.90112      56.9908 
0.000166911      5.03707      50.5585 
2.04921e-05      4.36000      56.6015 
2.03299e-05      4.55274      57.7412 
7.63862e-05      4.86640      53.8601 
1.99670e-05      4.36835      56.6737 
5.83836e-05      4.54428      57.6739 
0.000212905      4.37001      52.9990 
1.92969e-05      4.37671      56.7456 
3.72473e-05      4.38508      56.8173 
3.63728e-05      4.53894      57.7805 
1.81321e-05      5.30323      54.3618 
0.000600812      5.45818      52.6682 
3.52490e-05      4.39345      56.8887 
1.75982e-05      5.29741      54.4497 
1.75174e-05      4.52515      57.8201 
3.35001e-05      4.90951      57.0544 
1.72048e-05      4.50290      57.7923 
5.04186e-05      5.29396      54.6888 
0.000127346      4.36400      53.1038 
3.34676e-05      4.40183      56.9598 
6.42955e-05      4.49444      57.7244 
0.000171828      5.02935      50.4862 
4.70711e-05      4.41022      57.0306 
4.74234e-05      5.28818      54.7772 
4.03893e-05      5.28242      54.8658 
5.79030e-05      4.41861      57.1012 
4.37027e-05      5.28486      55.0169 
2.91997e-05      4.48599      57.6562 
0.000121967      4.35800      53.2090 
0.000107228      5.27914      55.1058 
4.07164e-05      4.42701      57.1715 
0.000295672      4.43541      57.2415 
1.25191e-05      5.27342      55.1949 
8.95125e-05      4.35202      53.3144 
0.000207939      5.27595      55.3461 
0.000240891      4.44383      57.3113 
0.000248187      5.02164      50.4136 
4.63916e-05      4.24382      55.5610 
3.19671e-05      4.23558      55.4845 
3.00419e-05      4.22734      55.4077 
0.000512955      4.86273      54.1199 
0.000161042      4.39609      52.7652 
0.000178366      4.86499      54.2843 
0.000181204      4.39005      52.8691 
2.41429e-05      4.86729      54.4486 
2.38695e-05      4.86625      54.8729 
6.97827e-05      4.86803      55.4612 
0.000190805      4.38402      52.9733 
2.26925e-05      4.87062      55.6248 
2.24531e-05      5.35800      53.1943 
4.43553e-05      4.86763      55.8855 
6.55765e-05      5.36400      53.1087 
2.16916e-05      4.86474      56.1466 
0.000224461      5.01394      50.3407 
0.000264333      4.85927      56.6697 
0.000382160      5.44229      52.5405 
7.84456e-05      4.85916      54.3801 
0.000241639      4.86763      56.7343 
5.65052e-05      4.37404      53.3659 
5.35086e-05      4.37200      53.1825 
1.76928e-05      4.36808      53.4711 
6.94160e-05      4.47754      57.5877 
9.60274e-05      4.36602      53.2876 
1.68400e-05      4.46910      57.5190 
0.000122036      4.45225      57.3808 
7.08633e-05      4.85687      54.2155 
9.26824e-05      4.87599      56.7988 
0.000226582      5.00625      50.2677 
7.04873e-05      4.36005      53.3929 
2.63328e-05      4.19447      55.0975 
0.000362215      4.18628      55.0192 
2.22682e-05      5.30094      54.2110 
1.08216e-05      5.29510      54.2988 
1.05431e-05      5.29160      54.5378 
0.000276587      4.99856      50.1944 
1.02815e-05      5.28580      54.6261 
0.000168855      4.84991      54.7370 
0.000130328      4.85232      54.9016 
1.58354e-05      4.85477      55.0660 
4.59735e-05      4.84905      55.1629 
3.03043e-05      4.85092      56.6048 
2.11871e-05      4.99088      50.1209 
-0.00490685      1.82584      7.55317 
-0.000960636      2.86400     -8.83742 
-0.000995766      3.37037     0.850024 
-0.00122505      1.89763      17.4801 
-0.00188404      2.85412     -8.86826 
0.00132534      4.44055      6.72491 
-0.00151568      3.38037     0.847509 
-0.00120360      1.81593      7.59464 
-0.00112263      1.88809      17.5713 
0.00116376      4.45048      6.70984 
-0.00121006     0.796994      72.4744 
-0.000125086      3.38024     0.678026 
-0.000513043      2.84424     -8.89932 
-0.00312640     0.740945     -111.371 
-0.00186224      5.69217      132.152 
0.000599605      1.14739      6.50563 
-0.000561394      3.39037     0.845010 
-0.000785851      4.85281      5.55787 
0.00120891      2.36730      14.6820 
-0.000610590      3.68392     -85.0168 
-0.000527378      3.45245     -167.453 
-0.000401146      3.52115      1.46463 
-0.000153702      3.68307     -85.1718 
-0.00131195      3.34724      176.231 
-0.000251558      2.46587      176.047 
-0.000690830     0.806536      72.6884 
-0.000457424      3.36037    -0.852552 
-0.000145932      1.87555      17.3722 
9.87942e-05      5.49758      5.74170 
0.000272307      4.30155      174.263 
0.000884290      4.46041      6.69483 
0.00120261      4.06841     -6.77566 
-0.000711980      3.36204      109.459 
-0.000881508      2.47584      176.063 
-4.87840e-05      3.53115      1.46048 
0.00111390      5.09566      92.6996 
0.000320624      4.05848     -6.79231 
0.000138611      5.50753      5.73130 
0.000497724      5.64987      6.81055 
-9.47099e-05      1.47665     -174.560 
0.000405828      3.66030      60.0027 
-0.000180898      1.51212      3.03270 
-0.000139578      3.44269     -167.417 
-0.000651455      2.47455     -114.597 
