! Center RA: 04 23 15.80073,  Dec: -01 20 33.06555 (2000.0)
! Established model.
! Flux (Jy) Radius (mas)  Theta (deg)  Major (mas)  Axial ratio   Phi (deg) T \
! Freq (Hz)     SpecIndex
0.00121153     0.378021      127.476 
0.00116853     0.392046      127.747 
0.00285165     0.427200      122.574 
 0.0213924     0.435660      121.866 
0.00633028     0.178885     -153.435 
0.00385844     0.344384      64.1790 
0.00180610      1.41510      175.135 
0.00524466      2.08125     -160.346 
0.00523366      2.09404     -160.181 
0.00256656      1.40513      175.101 
0.000646864      1.39517      175.066 
0.000419419      1.38438      175.443 
0.000611535      1.66075      178.275 
0.000205811      1.37441      175.409 
0.000203151      1.36444      175.376 
0.000398227      1.35447      175.342 
0.000781759      1.67075      178.285 
0.000195455      1.34451      175.307 
0.000384564      1.17881     -165.256 
0.000384414      1.32378      175.668 
0.00128588      1.68074      178.295 
0.00467174      1.19105     -164.914 
0.000560883      1.31381      175.635 
0.000183012      1.29314      176.009 
0.000535503      1.30384      175.601 
0.000177294      1.28316      175.978 
0.00135497      1.69074      178.305 
0.000511977      1.31461      175.200 
0.000171883      1.26254      176.367 
0.000166740      1.33540      174.844 
0.000326979      1.24197      176.769 
0.000321839      1.32544      174.806 
0.000161242      1.69047      178.644 
0.000160338      1.34629      174.459 
0.00232513      1.51119     -177.725 
0.00121688      1.70074      178.315 
0.000460556      1.23199      176.743 
0.000306647      1.33634      174.417 
0.000592189      1.34729      174.036 
0.000694241      1.21149      177.161 
0.00135709      1.71073      178.325 
0.000142694      1.33735      173.991 
0.000682333      1.34837      173.613 
0.000134794      2.03973     -161.121 
0.00240401      1.19369     -164.450 
0.000387307      2.02386     -161.565 
0.000635502      1.34952      173.191 
0.000130120      2.11028     -159.762 
0.000842624      1.20150      177.138 
0.00184204      1.72073      178.335 
0.000369903      2.12313     -159.602 
0.000366286      2.01122     -161.745 
0.000242257      1.33959      173.140 
0.000118597      1.35074      172.770 
0.000234059      2.13600     -159.444 
0.000675035      2.00811     -162.016 
0.000786035      1.34082      172.716 
0.000335225      2.13953     -159.193 
0.00143262      1.20104      177.614 
0.00207414      1.20603     -164.120 
0.000212786      2.15244     -159.039 
0.000617618      1.34213      172.293 
0.000709696      2.00504     -162.288 
0.000306356      2.15604     -158.791 
0.000691663      1.73072      178.345 
9.89149e-05      2.16899     -158.640 
0.000290530      1.33222      172.235 
0.000193371      2.17265     -158.394 
0.00106201      2.00202     -162.561 
0.000968299      1.73104      178.014 
0.00113062      2.18564     -158.247 
0.000972167      1.33360      171.809 
0.000888089      1.52118     -177.739 
0.000173944      1.21840     -163.796 
0.00273877      1.29988     -162.541 
8.17004e-05      1.32371      171.747 
0.000810450      1.21103      177.634 
0.00238206      1.74103      178.025 
0.00103924      1.99905     -162.834 
0.000160082      1.33507      171.384 
0.000811875      1.32518      171.320 
0.00262978      2.17635     -158.150 
0.000686886      1.53118     -177.754 
6.99261e-05      1.20067      178.091 
0.000646622      1.32673      170.893 
0.00108116      1.99612     -163.108 
0.000869606      1.21066      178.107 
0.000834416      1.31685      170.824 
0.000109199      1.18140     -164.787 
0.00531609      1.53160     -177.380 
0.000403670      1.99324     -163.383 
0.000466772      1.17175     -164.659 
0.000245463      1.22102      177.653 
0.000324961      1.54117     -177.769 
0.000415335      1.31848      170.395 
0.000677692     0.854751      173.956 
0.000810038      1.75103      178.036 
0.000488098      2.00282     -163.465 
0.000312622      1.23102      177.672 
8.34811e-05      1.24145      177.230 
4.09350e-05      1.25144      177.252 
4.08907e-05      1.30943     -162.672 
0.00276265      1.45496      175.269 
0.00358675     0.800625      170.655 
0.00557459      1.46492      175.301 
0.00410880      1.80737     -172.049 
0.00576927      1.52161     -177.363 
0.00385662     0.790759      170.538 
0.00378932      1.47489      175.333 
0.00242440      1.20880     -163.664 
0.00161941      1.19921     -163.530 
0.00250259      1.51162     -177.346 
0.00112223      1.81728     -172.093 
0.00102911      1.82858     -171.826 
0.000308901      1.50163     -177.328 
0.00220492     0.780897      170.417 
0.00214789      1.09882     -166.849 
0.00162738      1.44499      175.236 
0.00145665      1.10114     -166.342 
0.000289445      1.14285     -164.261 
0.000585018      1.15521     -163.918 
0.00226347     0.772787      169.563 
   1.95676    0.0141420     -45.0003 
  0.294703    0.0100000     -90.0000 
  0.203745      0.00000      0.00000 
 0.0174131    0.0412310      75.9639 
 0.0207192    0.0509902      78.6901 
0.00696321    0.0223607     -63.4350 
 0.0268717    0.0200000     -90.0000 
 0.0326857    0.0608276      80.5377 
0.00649664    0.0316228     -71.5651 
 0.0492380    0.0300000     -90.0000 
 0.0709226    0.0728011      74.0547 
  0.110428    0.0412310     -75.9639 
  0.121638    0.0824621      75.9638 
 0.0891711    0.0509902     -78.6901 
 0.0812469    0.0921954      77.4712 
 0.0939881    0.0538516     -68.1987 
 0.0831275    0.0905538      83.6598 
  0.134260    0.0670820     -63.4349 
 0.0232808    0.0900000      90.0000 
0.00252561     0.101980      78.6901 
 0.0528051     0.100499      84.2894 
0.00898895    0.0905539      96.3402 
 0.0618168    0.0721110     -56.3100 
 0.0303762     0.254951      101.310 
 0.0432056    0.0921954      102.529 
 0.0167285     0.257099      103.496 
0.00343233     0.344093      125.538 
0.00329878     0.350000      126.870 
 0.0124556     0.240208      92.3860 
 0.0299921     0.382884      130.764 
 0.0302761    0.0948683      108.435 
0.00989941     0.240000      90.0000 
0.00640982     0.230868      85.0303 
 0.0219056     0.389487      131.878 
 0.0534577    0.0984886      113.963 
 0.0175465     0.231948      82.5686 
 0.0412978     0.403609      131.987 
0.00591103     0.100000      126.870 
0.00825167     0.240832      85.2364 
 0.0294519    0.0806226     -60.2551 
0.00307613     0.233452      80.1342 
0.00838979     0.241868      82.8750 
0.000878532     0.235372      77.7352 
0.00941113     0.243310      80.5377 
 0.0283898     0.102956      119.055 
 0.0416453    0.0761577     -66.8014 
0.00154300     0.396989      130.914 
0.00157724     0.106301      131.186 
0.00297361     0.245153      78.2317 
0.00557474     0.447772      119.427 
0.00473607     0.396232      132.955 
0.00741958     0.456509      118.811 
0.00241999     0.230217      87.5105 
0.00442686     0.451774      117.699 
0.00215619     0.230000      90.0000 
 0.0106782     0.108167      123.690 
0.00258423     0.456180      116.003 
0.00310207     0.230217      92.4896 
0.00874729     0.451885      114.864 
0.00420511     0.230868      94.9697 
0.000486670     0.104403      106.699 
0.00176729     0.107703      111.801 
 0.0339824    0.0728011     -74.0547 
0.00576977     0.231948      97.4314 
 0.0109806     0.447772      113.703 
 0.0133358     0.114018      127.875 
0.00149259     0.111803      116.565 
0.00146315     0.220907      95.1944 
0.000373127     0.233452      99.8658 
0.00491333     0.222036      97.7652 
0.00156435     0.116619      120.964 
0.00214320     0.390513      129.806 
0.00270122     0.443847      112.521 
0.00437137     0.449444      110.854 
0.000592585     0.223607      100.305 
0.00169613     0.212132      98.1301 
0.000854276     0.372022      126.254 
0.000815609     0.122066      124.992 
0.00135033     0.380132      125.362 
0.00208711     0.213776      100.784 
0.000260270     0.577062      152.103 
0.00126902     0.382753      123.275 
0.000754379     0.585918      152.560 
0.00145271     0.455412      109.231 
0.00121688     0.215870      103.393 
0.00142954     0.385876      121.218 
0.000950424     0.594811      153.004 
0.00137214     0.218403      105.945 
0.00136394     0.461736      107.650 
0.00152156     0.389487      119.197 
0.00370216     0.603738      153.435 
0.000674936     0.380789      119.932 
0.000226664     0.208806      106.699 
0.000669532    0.0806226      119.745 
0.000870259     0.211896      109.290 
0.00209057     0.468402      106.113 
0.00105891    0.0632456      108.435 
0.00173398     0.221359      108.435 
0.00140771     0.215407      111.801 
0.00274601     0.384708      117.897 
0.00282214    0.0500000      90.0000 
0.00360112     0.475395      104.621 
0.000916368     0.224722      110.854 
0.00980690     0.608276      152.592 
0.00140989     0.219317      114.228 
0.00273671     0.380132      116.565 
0.00997349    0.0824621     -75.9638 
0.00253500    0.0447213      63.4350 
0.000807081     0.225610      102.804 
0.00139043     0.478017      105.781 
0.000463832     0.219545      120.069 
0.00315476     0.375766      115.201 
0.000743858     0.223607      116.565 
0.000454062     0.482701      103.173 
0.00477716     0.485077      104.323 
0.00109379     0.224722      122.276 
0.000136689     0.250799      66.5014 
0.000132721     0.264197      60.5241 
0.000128864     0.269258      58.6713 
0.000250128     0.230217      124.380 
0.000745283     0.362491      114.444 
0.000621006     0.228254      118.811 
0.000250841     0.274591      56.8887 
0.000124490     0.371618      113.806 
0.00209027     0.233238      120.964 
0.000122095     0.280178      55.1755 
0.000353509     0.286007      53.5308 
0.00282957     0.358469      112.989 
0.000445538     0.147648      151.699 
0.000335745     0.292062      51.9530 
0.000333280    0.0500000      53.1301 
0.00283013     0.298329      50.4403 
0.000611117    0.0424264      45.0000 
0.000493416     0.237065      117.646 
0.00151060     0.143178      155.225 
0.000749089     0.487647      105.461 
0.00119913     0.492443      102.907 
0.000629899     0.238537      123.024 
0.000823984    0.0500000      36.8699 
0.00351453     0.241868      119.745 
0.000175726     0.345398      112.109 
0.00160323     0.354683      111.501 
0.00412115    0.0921954     -77.4712 
0.000631763    0.0583095      30.9638 
0.00168523     0.494773      104.036 
0.00464564     0.199249      17.5256 
0.00466267     0.341760      110.556 
0.00525908     0.139284      158.962 
0.000851060     0.497293      105.154 
0.000764914     0.351141      109.983 
0.000327759    0.0447213      26.5651 
0.000420465     0.502195      102.653 
0.00173511     0.563028      123.408 
0.00148961     0.290689      49.1849 
0.000699966     0.508035      100.204 
0.00105034    0.0905538     -83.6598 
0.00139813     0.506360      99.0903 
0.000482475     0.246982      121.759 
0.00191371     0.571402      122.856 
0.00148090     0.612944      151.763 
0.000294046     0.169706     -135.000 
0.000855898     0.504876      97.9696 
0.000354075     0.176918     -137.291 
0.000722662     0.283196      47.8624 
0.000676604     0.255539      120.579 
0.000462417    0.0948683     -71.5651 
0.000226154     0.184391     -139.399 
0.000609762     0.192094     -141.340 
0.000696506     0.503587      96.8428 
0.000245566    0.0984886     -66.0375 
0.000119106    0.0943398     -57.9946 
! Tentative model.
! Flux (Jy) Radius (mas)  Theta (deg)  Major (mas)  Axial ratio   Phi (deg) T \
! Freq (Hz)     SpecIndex
0.00104097      1.83674      54.7524 
-0.00115471      1.76284     -86.7481 
-0.00327448      1.59765      159.864 
-0.000262356      3.97020     -143.707 
-0.00124080      3.59806      148.872 
-0.00296560      3.97827     -143.793 
-0.00211452      4.23803      143.346 
0.000834150      3.89443      143.983 
0.000252694      2.59600      123.690 
-0.00222571      2.34642     -146.649 
-0.00216443      2.30495     -164.396 
0.00167784      2.60156      123.873 
-0.00135082      2.29820     -134.471 
0.00196320      3.95171     -148.241 
0.000240267      1.85068      54.6783 
0.00164535      1.21655     -136.332 
0.00117909      2.44675      64.5870 
 0.0135801      3.89487     -156.067 
0.000443032      1.84491      54.9317 
0.00191336      1.33540      95.1556 
0.00547484      2.24891     -141.499 
0.00237788      2.40354      160.811 
0.000330632      3.88635      143.897 
0.000545993      1.83098      55.0080 
-0.000524188      3.60662      148.955 
0.000224089      3.76300     -140.175 
0.00212065      3.77709     -140.156 
0.000423376      1.95144      70.5437 
0.000690697      1.81135      34.6551 
0.00355772      2.38799      160.427 
0.000494258      2.46441     -115.733 
0.00206685      1.22381     -136.655 
0.000901896      1.82527      55.2651 
0.000101315      1.94813      70.8210 
0.00380717      2.23486     -141.540 
-0.000837540      2.29120     -134.293 
0.00147950      1.93541      71.0033 
0.000728684      2.51287     -87.2628 
0.000253417      2.44248      64.7989 
-0.000744459      2.14730      160.974 
-0.000744877      2.06475     -135.000 
-0.000380329      1.62432     -80.0738 
-0.000644558      2.90424      124.620 
0.000529778      3.37658      140.890 
0.000190748      1.92003     -127.168 
-0.000288826      2.35478     -146.782 
-9.67028e-05      3.60312      145.516 
0.000697614      3.94321     -148.164 
-0.00368660      2.36863     -146.712 
-0.00136143      4.23001      143.266 
-0.000591046      3.59489      145.426 
-0.000450874      2.20002      46.6576 
-0.00156189      2.65731     -158.359 
0.000452805      2.46876     -115.942 
-0.00125476      2.29532     -164.329 
-0.000254783      1.98761      106.064 
0.00193462      3.20751     -170.127 
0.000444030      1.81959      34.4761 
-0.000181368      2.47073     -95.3414 
-0.000253489      2.61543     -109.197 
-0.000657638      1.63248     -80.4800 
-8.98248e-05      1.98487      105.787 
-0.000502950      1.36418      115.626 
-0.000741306      2.47168     -95.5722 
0.000164507      3.90032      143.865 
-0.00116254      1.92107     -66.3706 
0.000570064      3.55924      170.458 
0.00122909      2.45978     -116.044 
-0.00108991      2.14114      160.634 
0.00162062      3.10928      175.573 
-0.000569656      2.19317      46.8476 
-0.000641437      2.28423     -134.113 
-0.000402326      2.89857      124.458 
0.00257891      1.83349      34.5568 
0.000545792      1.97426     -142.201 
0.000395309      2.50288     -87.2519 
0.00162359      3.47131      138.504 
0.000437989      3.94028      141.181 
0.000441812      1.33634      95.5826 
0.000230076      2.24199     -114.507 
0.000434950      3.78477     -140.253 
-0.000815293      2.86541     -57.2528 
-0.000150482      1.76343     -86.4237 
-0.000296741      1.36894      115.067 
-0.000858002      2.18634      47.0388 
-0.00167240      4.22200      143.184 
-0.00168963     0.931933     -86.3086 
0.000692735      1.01912     -137.386 
-0.000212065      2.76031     -170.196 
-0.000699532      2.27009     -134.108 
-0.00216211      2.60910     -68.6472 
-0.000286024      2.47267     -95.8028 
0.000214398      3.38290      140.758 
0.000847037      1.93217      71.2837 
-0.000146585      1.67171      41.6051 
0.000410944      2.50242     -87.4806 
0.000143188      2.66327      118.971 
-0.000204346      1.99449      105.709 
-0.000900118      1.68582      41.6335 
-0.000460385      2.30766     -164.157 
0.000278088      3.55760      170.617 
0.00148070      1.98217     -142.379 
0.00130929      3.21908     -169.982 
0.000402665      2.24615     -114.740 
-0.000192664      2.09538     -42.2921 
0.000135486      3.89225      143.778 
-0.000510414      1.75482     -85.7515 
-0.000559709      3.00007      179.618 
6.95828e-05      1.83918      55.1866 
-0.000270917      1.66604     -49.1376 
-0.000396530      2.13171      160.545 
-0.000923720      1.36473      114.687 
-0.000132146      3.58666      145.335 
0.000901070      1.23794     -136.637 
0.000261394      2.67202      118.867 
0.000311765      3.11231     -124.660 
0.000735181      3.93249      141.090 
-0.000130814      2.48262     -95.7795 
-0.00387325      1.69331      41.4087 
0.000188209      3.39065      140.865 
-0.000131710      2.17954      47.2312 
-6.60148e-05      2.07889     -135.000 
-0.000377140      1.92510     -66.0980 
0.000778379     0.673647      84.0355 
-0.00181577      2.26314     -133.926 
-0.00166310      2.17221      47.0521 
-0.000242520      1.67260     -48.8785 
-0.000125695      2.08598     -135.194 
0.000563224      3.54773      170.591 
-0.000525675      2.48365     -96.0090 
-0.000366633      2.19002      179.738 
0.000633100      1.51083     -88.1035 
0.000341769      3.79247     -140.349 
-0.000665340      2.46028     -161.270 
0.000122953      3.90623      143.746 
-0.000406485      1.58701      138.576 
0.000351008      2.50200     -87.7094 
0.000292869      3.46383      138.394 
0.000292128      2.25942     -114.864 
0.000447906      2.66721      118.679 
0.000284328      1.02650     -137.764 
-0.000120184     0.907359      58.0616 
0.000661751      3.84397     -157.839 
-0.000562607      1.64073     -80.8821 
0.000284573      3.89817      143.659 
-0.000328259      2.73891     -170.331 
0.000831739      2.31812     -70.8616 
-0.000728826     0.921141      57.8628 
0.000227787      2.46418     -116.253 
-0.000548437      2.20000      180.000 
-0.000217162      1.15434      31.9002 
-0.00150691      4.21400      143.103 
-5.78034e-05      1.92627     -66.7624 
-0.00135643      2.16541      47.2457 
0.000274388     0.504876      97.9696 
-0.000270398      1.74645     -85.0729 
-0.000901051      2.32034     -54.1179 
0.000531810      3.21736     -170.157 
0.000382277      3.93102      140.885 
-0.000213969      1.74734      84.7462 
0.000108739      2.50162     -87.9382 
-0.000342510      2.85701     -57.1443 
-5.44359e-05      3.57844      145.244 
0.000413897      3.91215      143.628 
0.000435619      2.25524     -114.633 
0.000624761      2.47316     -116.151 
0.000725326     0.674759      83.1910 
-0.000457782      2.48471     -96.2383 
-0.000698686      2.37699     -146.845 
5.36135e-05      1.84174      34.3803 
0.00101662      3.11801     -124.811 
0.000554593      3.46469      138.627 
0.000152614      1.91951      71.4707 
0.00123211      1.85564      34.4608 
0.000307249      2.49163     -87.9300 
-0.00144773      2.62206     -68.5232 
0.00115917      1.24523     -136.953 
-0.000311028      1.57877      137.824 
0.000308876      3.92959      140.680 
-0.000873201      1.64906     -81.2803 
0.000301783      1.51053     -88.4826 
-0.000102875      1.88130      177.868 
0.000344907     0.512445      95.5993 
0.000152091      1.23110     -136.975 
-0.000442532      2.62574     -68.3202 
0.000100534      1.03740      72.6130 
0.000474652     0.513517      96.7098 
0.000454635      3.80017     -140.445 
5.05312e-05      2.23788      79.4433 
-0.000602743      2.21000      180.000 
-0.000659712      1.43892      109.065 
9.89334e-05      3.40472      140.841 
-0.000388680      1.87131      177.856 
0.000393553      3.92822      140.475 
0.00151007      2.80644     -114.191 
-0.000239005      1.12894      124.535 
-0.000632610      1.43279      109.573 
0.000666070      3.63849     -151.251 
-0.000969023      2.31815     -53.7727 
-9.77168e-05      2.75045     -170.161 
0.000379027      3.91809      143.510 
0.000239352      2.42167     -87.8701 
0.000321196      1.24595      71.2742 
-0.000188780      1.60860      141.563 
0.000349078      2.61773     -151.477 
-4.80711e-05      1.74828      84.4198 
0.000418153      3.93459      140.362 
0.000614216      1.52030     -88.8693 
0.000176059      3.84775     -157.701 
9.34804e-05      1.03392     -138.136 
0.000482254      2.67122      118.388 
-0.000851593      1.35989      115.246 
-4.77005e-05      3.60323      148.736 
-0.000273362      4.20215     -142.639 
