! Center RA: 08 30 52.08619,  Dec: +24 10 59.82039 (2000.0)
! Established model.
! Flux (Jy) Radius (mas)  Theta (deg)  Major (mas)  Axial ratio   Phi (deg) T \
! Freq (Hz)     SpecIndex
  0.504808      0.00000      0.00000 
 0.0697325    0.0282843     -45.0001 
0.00819172    0.0447214      153.435 
 0.0127039    0.0721110      146.310 
 0.0224904    0.0848528      135.000 
0.00987578    0.0848527     -45.0000 
 0.0190324     0.100000     -36.8699 
0.00609821     0.100000      126.870 
 0.0219597     0.113137      135.000 
 0.0374583     0.113137     -45.0000 
 0.0588917     0.128062      128.660 
 0.0136939     0.128063     -38.6598 
 0.0225969     0.141421     -45.0000 
 0.0260571     0.156205     -39.8056 
 0.0221027     0.141421      135.000 
 0.0106384     0.172047     -35.5377 
0.00965912     0.156205      140.194 
 0.0335811     0.188680     -32.0054 
 0.0338902     0.172046      144.462 
0.000646314     0.188680      32.0054 
0.00436419     0.144222     -123.690 
 0.0195007     0.134164     -116.565 
 0.0178337     0.101980     -101.310 
0.00547877      4.29195      129.327 
0.00231412      4.29483      128.951 
0.00359924      1.54674      130.280 
0.00446252     0.126491     -108.435 
0.00232277     0.197990      45.0000 
0.00172805     0.212603      41.1859 
0.00762060     0.100000     -90.0000 
0.00258777     0.184391      40.6013 
0.00417063     0.141421      45.0000 
0.000725458     0.169706      45.0000 
0.00111890    0.0721110     -56.3100 
0.00116475     0.107703      68.1986 
0.000511534     0.161245     -119.745 
0.000546536     0.121655     -99.4623 
0.00220354      1.84043      137.643 
0.000179235      1.62788      132.510 
0.000113854      1.62936      131.517 
0.000512784      1.82702      138.106 
0.000168634      1.61617      130.986 
0.000191025      1.60312      130.446 
7.46336e-05      1.59022      129.898 
2.66893e-05      1.58405      127.304 
0.00468289      1.10941      146.023 
0.00502670     0.442719      108.435 
0.00381224     0.436807      105.945 
0.00527801     0.447214      100.305 
0.000300636     0.749667      133.919 
0.00166092      1.12606      146.592 
0.000801289     0.447214      116.565 
0.000298407     0.481664      131.634 
0.000402798     0.438634      114.228 
0.00108028     0.468615      129.806 
0.000247061     0.509902      138.180 
0.00162756      1.91552      139.658 
0.00360907      1.93080      140.042 
0.00331237      1.89842      138.417 
0.00554395     0.412311      140.906 
0.00615646     0.250599      61.3895 
 0.0149084     0.260768      57.5288 
0.00966276     0.272029      53.9726 
0.00996617     0.353836      137.291 
0.00596199     0.368782      139.399 
0.00109001     0.384187      141.340 
0.000204738     0.617738      150.945 
0.00143829     0.627694      149.349 
0.00534122     0.325576      137.490 
0.00329508     0.340588      139.764 
0.000612129     0.356090      141.843 
0.00676324     0.116619     -59.0362 
0.00330179     0.161245     -29.7449 
0.00629895     0.116619      149.036 
0.000902819     0.144222     -33.6900 
0.00917542     0.128062     -38.6598 
0.000571457    0.0632455      71.5651 
0.00440972     0.113137     -45.0000 
0.00312828     0.178885     -26.5650 
0.000543407    0.0999999     -53.1301 
0.00409376     0.223607      63.4350 
0.00355220     0.339411      135.000 
0.00998749     0.769675      155.433 
0.00642283      1.18186      113.962 
0.00315060     0.733485      154.134 
0.00209526      1.19013      114.842 
0.000519784     0.325576      132.510 
0.00145115     0.312410      129.806 
0.00183458      1.18962      116.996 
0.000474916     0.284253      129.289 
0.000307480     0.272029      126.027 
0.000722921     0.250599      118.610 
0.00175190     0.697711      152.700 
0.00118927     0.297321      132.274 
0.00145839      4.25737      128.324 
0.00396882      1.91343      138.814 
0.00137855      3.10161      122.358 
0.00287072      3.87319      128.290 
0.00147864      4.26980      128.534 
0.00219507      3.13949      129.572 
0.00239903      2.36888      130.549 
0.00208753      3.09095      122.045 
0.00314183     0.824621      104.036 
0.000437931      1.96540      121.264 
0.000187362      2.71360      122.050 
0.00157403      4.27930      129.120 
0.000508871      2.70304      121.691 
0.00113227      1.95510      120.763 
0.000914727      3.86083      128.057 
0.00135130      3.15227      129.852 
0.000326683      1.88351      138.013 
0.000164472      2.69258      121.329 
0.000275470      2.67918      120.010 
0.000329269      3.10644      123.179 
0.000265505      2.38193      130.914 
0.000273215     0.241661      65.5561 
0.000978034     0.644981      150.255 
0.00121272     0.311127      135.000 
0.00102349     0.662420      151.113 
8.39416e-05     0.680000      151.928 
0.000606427     0.604649      145.784 
0.000197541     0.621289      146.821 
0.00129278     0.120000     -90.0000 
0.00102535     0.312410      50.1944 
0.000969135     0.140000     -90.0000 
0.00278364     0.461736      107.650 
0.00231967     0.161245     -119.745 
0.000304208     0.244131      55.0080 
9.11470e-05     0.196977     -113.962 
0.00377018      1.57544      118.843 
0.000891104      1.92852      139.205 
0.00119702      1.94618      140.421 
0.00123672     0.835464      101.041 
0.000305237      1.19867      115.710 
0.000868984      1.19883      117.848 
-0.00425894     0.164924      14.0363 
0.00632004     0.208806      163.301 
-0.000381815     0.145602      15.9454 
-0.00100892     0.101980      11.3100 
0.00311858    0.0799999     -90.0000 
-0.00129097    0.0824621      14.0363 
-0.00110664    0.0632456      18.4350 
-0.00102815    0.0447213      26.5651 
-0.000689066    0.0282843      45.0001 
-0.00311670    0.0200000      180.000 
0.000922746    0.0824621     -104.036 
0.000735483    0.0894427     -116.565 
-0.00222324    0.0400000      180.000 
0.00271872     0.170880      20.5560 
0.000361138    0.0999999     -126.870 
0.000228468     0.113137     -135.000 
0.000950388     0.215407     -158.199 
0.00101667     0.203961      168.690 
-0.00179068    0.0447214      153.435 
-0.000216435     0.120000      0.00000 
-0.000344577     0.140000      0.00000 
0.000171295     0.128062     -141.340 
0.000312761     0.200998      174.289 
-0.000412899    0.0632456      161.565 
-2.55387e-05     0.161245      7.12503 
-2.80540e-05    0.0894428      153.435 
-0.00161869      1.78908      5.77433 
-0.00147609      1.80898      5.71059 
-0.00169045      4.52831      147.995 
-0.00154117      1.44361     -10.3758 
0.000347335      4.97031      86.3086 
-0.00150265      2.46658     -161.565 
-0.00168755      6.05260      138.885 
0.00186539      4.99027      86.3234 
-0.000531771      1.20000      143.130 
-0.000695219      1.19633      141.789 
0.00144188     0.842140      4.08562 
0.00116806      1.98323     -68.0913 
0.000714065     0.820975      2.79271 
-0.000177990      1.67475      139.844 
-0.000821313      2.44761     -161.417 
0.000788089      1.99078     -67.5572 
-0.000276403      4.14849      142.246 
-0.000528722      1.69009      140.281 
-0.000321673      4.54528      148.128 
0.00119705      3.61159      107.733 
-0.000260423      4.42741      153.435 
-0.000495324      1.42773     -11.3099 
0.000318968      5.97488     -153.778 
0.000992203      6.01960     -153.775 
-0.000382346      4.13270      142.076 
-0.000319697      4.55588      147.915 
-0.000143827      4.08705      130.236 
-0.000143785      3.58508      169.066 
-0.000183752      4.44531      153.550 
-0.000360793      1.71825      140.194 
-0.000364830      4.06163     -8.20990 
-0.000685588      3.56545      169.005 
-0.000402077      4.10000      130.450 
-0.000760180      4.16509     -113.488 
0.000167001      5.46070     -133.516 
-0.000505807      1.44734     -11.1547 
0.000698046      4.98903      86.5526 
-0.000124655      4.12931      141.687 
-0.000125195      4.68094     -24.4845 
-0.000557488      1.73367      140.618 
0.000923977      6.38150     -151.347 
0.000159293      2.96122     -69.8516 
-0.000155899      4.57283      148.048 
0.000765873      2.13785     -117.284 
-0.000488676      4.69915     -24.3834 
-0.000148341      4.11364      141.514 
0.000759521      3.68505      35.5015 
-0.000303567      6.88186      144.462 
0.000405060      6.33782      125.496 
0.000244323      3.48769      14.2753 
-7.66344e-05      6.30635      152.622 
0.000150683      2.12876     -116.806 
-0.000466920      3.53010      168.563 
-0.000113552      1.86473      38.4679 
-0.000609146      3.11602      36.6492 
-0.000389928      4.08142     -8.16981 
0.000534918      5.47449     -133.668 
0.000811222      5.66230      74.6384 
0.000110185      2.24321      50.0636 
-3.74417e-05      4.40132      62.3870 
-0.000207276      4.57930      148.392 
0.000139105      3.04059      91.1307 
0.00115073      5.48802      120.677 
-0.000243642      4.41062      62.1568 
-0.000222249      1.86815      37.6060 
-0.000268965      1.85235      37.9835 
7.19510e-05      2.15824     -7.45430 
-0.000394866      6.86560      144.365 
3.56562e-05      4.70918     -155.939 
0.000150137      2.23043      50.4576 
-0.000564873      6.03755      138.761 
0.000712810      6.34255      125.244 
-0.000543377      4.17310     -113.739 
3.49758e-05      1.43024      159.538 
0.000216766      2.17807     -7.38604 
0.000161664      4.72745     -156.038 
-0.000163378      3.48310     -132.207 
0.000568265      5.45777      94.6242 
-0.000935395      2.03578      100.758 
3.41046e-05      1.41152      159.254 
-0.000378793      1.45134     -11.9293 
-0.000127214      4.11300      130.662 
-3.37866e-05      4.09800      141.340 
3.36743e-05      2.33032     -129.428 
-3.36355e-05      2.58805      16.6144 
6.62867e-05      6.34946      125.643 
-0.000551404      1.74917      141.033 
-6.61348e-05      5.51507      71.8279 
0.000276670      1.42338      160.292 
0.000748164      2.91925     -121.839 
0.000125165      3.38892      59.5002 
-9.69709e-05      1.03769     -117.553 
-0.000176288      2.48556     -161.711 
0.000150508      3.49285     -113.629 
-0.000201153      1.04307      94.3987 
-0.000268150      2.56889      16.7420 
-0.00156999      5.52134      71.6307 
-0.000609058      4.37433      62.4977 
-0.000308636      2.74882     -131.460 
-0.000899659      1.84391     -114.341 
0.000583601      6.04834      127.476 
-0.000112211      1.01074     -117.072 
-3.05293e-05      4.59635      148.523 
-8.58869e-05      1.16825      141.953 
-0.000172127      6.84935      144.268 
-0.000266060      3.13209      36.4309 
0.000132104      2.37124     -129.867 
0.000156688      5.99283     -153.863 
2.92213e-05     0.822192      4.18492 
-0.000482049      4.18120     -113.990 
0.000250797      4.25516      55.3389 
0.000178097      4.98786      86.7819 
-0.000310731      1.00180     -116.053 
-0.00107014      5.52768      71.4339 
-0.000256619      1.47092     -11.7683 
-0.000215160      5.33670     -147.084 
0.000219681      3.72924      35.3948 
-0.000260475      5.11124      50.0796 
0.000327544      1.40456      160.017 
8.07907e-05      4.74573     -156.136 
0.000157294      3.46653     -113.459 
7.97802e-05      5.22395      117.350 
-2.74941e-05      4.12606      130.872 
0.000241727      3.36155      59.6209 
-0.000181958      6.83313      144.170 
-0.000127952      6.27898      63.1085 
0.000486702      1.98010     -66.8014 
-0.000145044      1.76918      5.83949 
-7.55492e-05      4.12820      130.481 
-0.000229798      1.15256      141.340 
0.00103449      5.48832     -133.819 
-0.000118244      1.88404      37.2348 
0.000600720      4.72559      15.2126 
-0.000162264      2.91596      72.4350 
-0.000973423      5.31992     -146.967 
-0.000159576      2.50456     -161.854 
0.000162018      4.76403     -156.233 
-4.88911e-05      6.81252      143.837 
8.80832e-05      3.15734      54.7999 
4.85201e-05      5.23316      117.544 
-0.000226086      6.28805      62.9460 
0.000694967      6.04003      127.060 
-0.000702997      2.03961      101.310 
-0.000217172      6.81692      144.071 
-0.000161292      4.18937     -114.240 
0.000210038      5.15694      73.3220 
-0.000265512      6.64897      136.463 
0.000792267      5.89196      77.8509 
0.000127915      3.04026      90.7538 
2.33313e-05      5.20619      117.451 
-0.000150394      6.79638      143.737 
-0.000149156      5.09843      50.2520 
0.000168564      5.21544      117.646 
0.000141563      2.38411     -130.236 
0.000165016      6.35412      125.391 
2.26975e-05      3.47454     -113.762 
-0.000233816      4.09238     -142.346 
0.000228289      1.38579      159.734 
0.000665144      5.16271      73.1094 
0.000277061      5.31507      168.056 
-0.000126610      1.76477      141.442 
-2.23190e-05      2.01137      48.2245 
-0.000219417      1.49050     -11.6115 
-8.16284e-05      1.74734      5.25380 
0.000257899     0.809938     -32.9052 
-8.58209e-05      4.38361      62.2658 
-0.000741518      5.98732     -40.3937 
2.14408e-05      4.96790      86.7690 
2.12647e-05      3.44401      14.1169 
0.000263632      4.96681      86.9993 
-0.000129704      4.66082     -174.583 
0.000169057      4.78234     -156.329 
-4.13572e-05      2.52357     -161.996 
-0.000488364      4.33820      62.8443 
-0.000666091      2.04088      24.3045 
-0.00130097      6.29717      62.7839 
-2.03069e-05      3.18025      119.790 
0.000379327      5.29551      168.011 
-0.000190324      6.63449      136.344 
-7.92191e-05      2.49840     -162.290 
0.000152151      3.18522      54.7133 
-1.99992e-05      6.42800     -149.525 
-0.000308434      4.10824     -142.516 
0.000898009      5.50218     -133.969 
-0.000144089      6.41077     -149.435 
1.95830e-05      3.49954      20.4027 
-0.000305173      5.55442      85.8703 
-0.000180046      1.78045      141.843 
-1.93367e-05      1.13701      140.711 
-0.000243630      2.51746     -162.429 
-0.000125727      5.05751      50.4555 
-0.000196370      6.02252      138.635 
-0.000137730      1.87040     -114.647 
0.000214967      5.59464     -167.405 
0.000107681      5.45619      94.4148 
-1.87730e-05      3.17036      119.476 
0.000143281      1.39786      160.787 
-1.87436e-05      4.23249     -114.870 
-0.000241541      1.87883     -115.201 
-5.48713e-05      3.08804      36.5730 
3.56434e-05      4.02045     -52.2750 
-0.000257564      7.08308      49.9251 
-0.000104018      7.03295      139.151 
0.000281782      6.35890      125.140 
-8.62323e-05      4.47571      114.274 
7.01260e-05      5.19954      72.5408 
0.000401663      3.93777     -114.613 
0.000101273      1.89842     -163.474 
-0.000326569      6.30635     -152.622 
0.000203136      5.26061      167.707 
-6.74947e-05      4.83011     -170.226 
0.000135806      6.06590     -141.694 
1.73837e-05      3.59961      107.126 
-0.000131492      3.30551     -21.2864 
-6.75675e-05      3.07278     -95.2282 
0.000606118      5.20557      72.3308 
-3.38700e-05      1.49466     -12.3625 
-0.000176462      5.04480      50.6307 
0.000948430      5.88778      78.0412 
-0.000195254      2.04362      101.860 
-0.00195060      6.77882     -145.700 
0.00127109      3.94614     -114.877 
0.000113278      6.48460      116.565 
-0.00144440      5.24202     -146.674 
-0.000185395      4.16941      130.721 
-0.00136456      5.25875     -146.793 
-0.000136849      5.57781      137.616 
0.000179984      4.72038      14.9783 
-4.87887e-05      1.79622      142.237 
0.000132669      5.61416     -167.449 
3.28171e-05      3.59377      106.821 
0.000524301      6.05022     -141.577 
-7.97131e-05      4.19762     -114.489 
1.65215e-05      2.41230     -130.292 
-0.000155999      7.01783      139.044 
9.54447e-05      4.96580      87.2298 
-0.000207827      4.46753      114.041 
-3.27520e-05      1.02000     -118.072 
-1.62869e-05      3.74080      65.3532 
-0.000346169      3.04795     -94.1392 
-3.22387e-05      4.02040      140.450 
-0.000448116      5.55590      85.6646 
0.000193232      2.42528     -130.653 
-0.000877011      7.06779      49.8208 
-7.73827e-05      4.12412     -142.686 
-6.29620e-05      4.73544      22.3406 
-4.75798e-05      1.06677     -120.411 
-4.52244e-05      4.56653     -147.702 
1.60128e-05      2.15564     -117.041 
-0.000122966      4.73629     -126.241 
0.000227151      5.24107      167.661 
-0.000174252      3.83943     -162.415 
-0.000169626      4.03316      140.231 
4.61734e-05      1.85440     -163.715 
6.16211e-05      3.99129      85.6894 
-0.000678616      6.30635      62.6223 
1.57217e-05      3.58804      106.516 
-4.44172e-05      1.78404      142.745 
-0.000431058      4.01781      140.048 
3.12412e-05      6.23897     -139.160 
-1.55536e-05      1.59424      19.7989 
0.000182115      6.80000     -143.130 
-9.04351e-05     0.684105     -127.875 
0.000323368      6.36380      124.889 
-1.54885e-05      4.18249      130.928 
1.54193e-05      5.47321      93.9812 
0.000178588      6.22386     -139.039 
-0.000189461      2.04783      102.407 
4.51757e-05      6.05211      127.211 
-1.53264e-05      6.00753      138.509 
-3.04448e-05      1.07703     -121.329 
-0.000131387      4.47111     -139.899 
-4.44623e-05      1.80000      143.130 
-3.02497e-05      2.38680      94.3251 
7.16928e-05      4.94684      86.9872 
-7.37996e-05      5.99256      138.382 
2.86895e-05      6.47568      116.407 
-1.50102e-05      4.71695      22.4330 
0.00279852      6.65892      65.5133 
-4.42823e-05      1.12606     -123.408 
-0.000153359      2.53653     -162.565 
0.000101375      4.01442      85.1415 
0.000652133      6.66723      65.3569 
0.000489021      5.21168      72.1213 
0.000272996      6.81601     -143.231 
1.47289e-05      3.58240      106.209 
-1.47013e-05      1.69800      15.0184 
-0.000243819      4.24094     -115.115 
4.31422e-05      1.37899      160.514 
5.64991e-05      3.34431      59.4476 
-0.000126485      6.57078      112.741 
0.000292289      5.88367      78.2317 
-1.46082e-05      5.03214      50.8067 
1.45207e-05      5.47185      93.7723 
0.00114566      5.39637      68.4746 
0.000808146      5.85604      78.5749 
-0.000165060      4.72449     -126.045 
1.44804e-05      5.43651      59.0001 
-0.000216735      4.23249     -12.0002 
-0.000884125      6.57854      112.901 
-4.26674e-05      1.67869      15.1952 
-5.71465e-05      1.18811     -126.098 
0.000753757      6.03457     -141.459 
9.81056e-05      5.22153      167.614 
-0.000366022      6.00030     -40.5392 
0.000167974      6.20877     -138.918 
4.19906e-05      6.06422      127.361 
 0.0316980      6.05944     -42.3246 
-6.96446e-05      5.97762      138.255 
7.03214e-05      5.51609     -134.119 
-8.40843e-05      1.84564      29.8989 
1.41988e-05      1.87926     -163.301 
2.79423e-05      5.06281     -148.570 
-2.79661e-05      1.54984      19.6041 
-0.000226866      1.22801     -127.057 
4.13978e-05      1.86011     -163.124 
2.77743e-05      1.36015      160.233 
2.78087e-05      6.37526      125.036 
-0.000147701      4.41239     -139.596 
1.39006e-05      6.37043      125.287 
0.000229942      6.83204     -143.331 
-6.86442e-05      2.05222      102.953 
-0.000201042      3.68049     -89.0659 
0.000434112      5.57229     -134.418 
0.000267712      6.38201      125.433 
0.000130374      4.01617      84.8572 
-2.75321e-05      5.91151     -41.0218 
-0.000213994      1.82833      30.2113 
-0.000183602      6.84237      144.638 
0.000119322      1.80044     -178.727 
-0.000120999      5.89644     -41.1494 
0.000146608      6.19371     -138.797 
-1.35939e-05      1.65940      15.3763 
-0.000209577      2.03735      103.627 
-2.68879e-05      4.15639      130.512 
0.000104632      5.20200      167.567 
-7.94229e-05      5.96272      138.127 
-0.000285435      6.67904     -146.976 
1.33638e-05      5.07988     -148.688 
-1.33642e-05      3.68022     -89.3772 
-0.000131644      4.22568     -105.089 
1.33402e-05      1.84098     -162.943 
2.63515e-05      2.44049     -130.347 
-5.20432e-05      1.53101      19.8552 
