! Center RA: 08 41 24.36528,  Dec: +70 53 42.17302 (2000.0)
! Established model.
! Flux (Jy) Radius (mas)  Theta (deg)  Major (mas)  Axial ratio   Phi (deg) T \
! Freq (Hz)     SpecIndex
  0.165975    0.0282843     -135.000 
 0.0422376    0.0223607     -116.565 
 0.0480765    0.0424264     -135.000 
0.00223781    0.0141422     -135.000 
0.00434459    0.0100001     -90.0000 
0.00417623      0.00000      0.00000 
0.00202759   0.00999997      0.00000 
0.00585153    0.0141421      45.0000 
0.00187640    0.0223606      26.5651 
0.00715945    0.0282842      45.0000 
0.00822804    0.0424264      45.0000 
 0.0182006    0.0565685      45.0000 
0.00780371    0.0500000     -143.130 
 0.0164674    0.0640312      38.6598 
 0.0457287    0.0761578     -156.801 
 0.0135599    0.0721110      33.6900 
 0.0137170    0.0806225      29.7449 
0.00205142    0.0424264     -45.0000 
0.00299821    0.0500000     -36.8699 
0.00309938    0.0583095     -30.9638 
 0.0296689    0.0806226      150.255 
0.00764614    0.0670820     -26.5651 
 0.0211730    0.0761577     -23.1986 
 0.0321996     0.430465     -149.265 
0.00569635     0.233238     -120.964 
 0.0232671     0.241868     -119.745 
0.00150395     0.444185     -148.815 
 0.0238939     0.439090     -149.931 
 0.0201828     0.237065     -117.646 
 0.0135672     0.452769     -149.470 
 0.0102620     0.232594     -115.463 
0.00545907     0.228473     -113.199 
0.00322936     0.447772     -150.573 
0.00218446     0.224722     -110.854 
0.00836879     0.477074     -146.976 
0.000682890     0.429418     -152.241 
0.00863875     0.202238     -98.5308 
0.000445639     0.228254     -118.811 
0.000216354     0.424853     -153.435 
0.00118840     0.411461     -154.058 
0.000189064     0.238537     -123.024 
0.000535334     0.236009     -126.384 
0.00257973     0.420476     -154.654 
0.00220464     0.242074     -128.290 
0.00174148     0.429535     -155.225 
0.000315146     0.240832     -131.634 
0.00536407     0.212132     -98.1301 
0.00224049     0.247588     -133.363 
0.00307989     0.485489     -147.619 
0.00133702     0.438634     -155.772 
0.00109306     0.447772     -156.297 
0.000189057     0.256125     -141.340 
0.000829415     0.248395     -139.899 
0.00111450      2.71709     -137.088 
0.00403030      2.72391     -136.934 
 0.0189045     0.530754     -137.291 
0.00105600      2.73234     -139.899 
0.00261897      2.74000     -140.034 
0.00306986      2.71662     -136.790 
0.00423984      2.73359     -140.194 
0.000287483      2.72347     -136.637 
0.000284079      2.70934     -136.645 
0.00266881      2.71621     -136.492 
0.00612740      2.74128     -140.328 
0.00122511      2.70897     -136.346 
0.00115769      2.70174     -136.200 
0.00151751      2.69453     -136.053 
0.000615330      2.68734     -135.905 
0.00192642     0.523450     -136.548 
0.000972636      2.69431     -135.752 
0.000198393      2.73075     -136.781 
0.00673694     0.530377     -135.764 
0.00142222      2.68715     -135.603 
0.00314612      2.74898     -140.461 
0.00102214      2.73123     -137.077 
0.00199038      2.68002     -135.454 
0.00149433      2.73856     -137.220 
0.000578798      2.73490     -140.489 
0.00570144      2.74263     -140.622 
0.00104894      2.67290     -135.303 
0.000717920      2.68704     -135.302 
0.000963293      2.73178     -137.374 
0.00428777      2.67994     -135.151 
0.000431932     0.524976     -139.635 
0.000498128     0.526308     -141.170 
0.000202477     0.537401     -135.000 
0.00373016     0.537587     -133.493 
0.000432246      2.74591     -137.361 
0.00776259     0.520096     -142.028 
0.000529963      2.62680     -137.932 
0.00313701     0.544885     -132.769 
0.00183666     0.514004     -142.907 
0.00111350      2.62011     -138.094 
0.000144569      2.75269     -137.208 
0.00143808     0.522015     -143.569 
0.00356274      2.75036     -140.755 
0.000667609     0.508035     -143.807 
0.000253177      2.76004     -137.349 
0.00199024     0.516140     -144.462 
0.000879818      2.76682     -137.197 
0.00191793      2.67286     -135.000 
0.000353245     0.502195     -144.728 
0.00139129      2.61345     -138.257 
0.00289500     0.510392     -145.376 
0.00202331     0.538145     -131.987 
0.00120449      2.75065     -135.147 
0.00274986      2.78095     -137.186 
3.89925e-05      2.60680     -138.421 
0.00288310      3.16746     -145.808 
0.000670728      3.17574     -145.910 
0.00542724      3.11437     -144.013 
0.00114832      3.17014     -146.059 
0.00263088     0.318277     -133.727 
0.000583536      3.17844     -146.160 
0.00162093      3.17289     -146.310 
0.00223099     0.311448     -132.397 
0.00156682      3.17569     -146.560 
0.00235055     0.524309     -145.098 
0.000363337      3.17019     -146.711 
0.000110805      3.17855     -146.810 
0.00365509     0.332415     -136.219 
0.000170952     0.506063     -142.224 
0.000689394      2.77363     -137.045 
7.19746e-05      2.77966     -136.312 
0.000474034      2.77417     -137.337 
7.07909e-05      2.78658     -136.163 
0.000339742      2.77937     -136.020 
 0.0110624     0.318277     -136.273 
0.00258720     0.325269     -135.000 
0.000725524      2.78632     -135.872 
0.000591231      2.77478     -137.629 
0.000217423      2.77915     -135.729 
0.000413527      2.76805     -137.782 
0.00224550      2.78614     -135.582 
0.000810676     0.518652     -146.004 
0.000454392      2.77546     -137.921 
0.000689775     0.513128     -146.929 
0.000952895      2.76877     -138.074 
0.00480212     0.311127     -135.000 
0.00558804     0.516236     -148.465 
0.00156925      2.77622     -138.212 
0.00174482      2.77901     -135.437 
0.00122350     0.530754     -132.709 
0.000585250      2.93639     -142.193 
0.00160441      2.92850     -142.074 
4.95970e-05     0.507740     -147.875 
0.000180471      3.00413     -143.664 
0.000922985      2.89871     -141.865 
0.000248884      3.00629     -143.931 
0.000464274      3.01438     -144.042 
0.00156445     0.524023     -131.906 
0.00244400      2.90489     -141.710 
0.00156230      3.02248     -144.154 
0.000452236     0.517397     -131.082 
0.00421611     0.304138     -136.332 
0.00488223     0.311448     -137.603 
0.00421405     0.578014     -127.266 
6.09605e-05     0.506063     -150.396 
0.00211576     0.501199     -151.390 
0.00173437      3.15457     -147.821 
0.000902087     0.496488     -152.403 
0.000102536      3.15349     -146.511 
0.000442186      3.15902     -146.360 
0.000513587      3.14925     -147.975 
0.000552904      3.16457     -146.210 
0.000506310      3.15246     -148.226 
3.76772e-05     0.491935     -153.435 
1.21686e-05     0.505371     -152.928 
0.000425485     0.500899     -153.947 
0.00133631      3.14721     -148.381 
0.00229774     0.325576     -137.490 
0.000977635     0.526973     -146.611 
0.000527857     0.521536     -147.529 
0.000886749     0.564004     -127.073 
0.000213724     0.530000     -148.109 
0.000362498     0.524786     -149.036 
0.00162987     0.558032     -126.254 
0.000114598     0.519712     -149.982 
2.18426e-05     0.514782     -150.945 
2.15153e-05     0.510000     -151.928 
0.000102941     0.518845     -152.447 
0.000468240     0.514296     -153.435 
0.000157332     0.535350     -147.200 
0.000349131     0.509902     -154.440 
0.000244566     0.540833     -146.310 
0.000114560     0.342053     -142.125 
0.000539389     0.334216     -141.072 
0.00213960     0.326497     -139.970 
0.00181637     0.546443     -124.563 
0.000928817     0.532541     -145.713 
0.00312269     0.318904     -138.814 
0.000130079     0.487545     -154.486 
0.000608074     0.496588     -154.983 
0.000632890      3.13869     -148.285 
0.000897438     0.546443     -145.437 
0.000535024     0.492443     -156.038 
0.00113864     0.538238     -125.166 
0.000189655     0.505668     -155.462 
0.000284989     0.501598     -156.501 
0.000761018     0.530094     -125.789 
0.000308026     0.554707     -146.023 
0.00204249      2.79780     -138.332 
0.000247729      2.87360     -141.216 
0.00126554      2.88141     -141.340 
5.58104e-05      2.80446     -138.180 
0.00100886      2.81460     -135.864 
0.000928631      2.88922     -141.464 
0.00160670      2.80744     -135.722 
0.000274326      2.89705     -141.587 
0.00161856      2.79866     -138.621 
0.000390251      2.97800     -143.053 
0.00120502      2.97200     -143.207 
0.00245208      2.80029     -135.579 
0.00122018      2.96602     -143.362 
6.40377e-05      2.86582     -141.090 
0.000371498      2.87211     -140.935 
0.000216389      2.86435     -140.809 
0.000275930      2.96007     -143.517 
0.00100268      2.80617     -138.756 
0.000189690      2.81370     -138.891 
0.000171154      2.87068     -140.654 
0.000712149      2.87988     -141.061 
0.000326853      2.88766     -141.185 
0.000176792      2.80528     -138.468 
0.000259371      2.87842     -140.781 
0.000185313      2.79315     -135.435 
1.67980e-05      2.81277     -138.603 
0.000865148     0.199249      72.4744 
0.000145171     0.247588      46.6366 
0.000527011     0.345398     -157.891 
0.000265875     0.254558      45.0000 
0.000898451     0.196469      75.2565 
0.000448751     0.261725      43.4518 
0.00939086     0.341760     -159.444 
0.00165891     0.194165      78.1113 
0.00265653     0.254951      41.8202 
0.000218228     0.332415     -133.781 
0.000378880     0.325576     -132.510 
0.000687868     0.333017     -131.348 
0.000513183     0.203961      78.6901 
0.000118347     0.339706     -132.614 
0.000607778     0.193132      68.7495 
6.16584e-05     0.240416      45.0000 
0.000174314     0.247588      43.3634 
0.000419649     0.189737      71.5651 
0.00118718     0.186815      74.4759 
0.00434236     0.248395      40.1009 
0.000336630     0.318904     -131.186 
0.000342710     0.326497     -130.030 
0.000921101     0.183848      67.6199 
8.17372e-05     0.304795     -138.991 
0.000104593     0.187883      64.7989 
0.000386242     0.180278      70.5600 
0.000462836     0.304138     -133.668 
0.00126147     0.302324     -124.216 
0.000214455     0.184391      77.4712 
0.00127927     0.174642      66.3706 
0.000641854     0.297321     -137.726 
6.36945e-05     0.178885      63.4350 
0.000500851     0.296985     -135.000 
0.000469102     0.177200      73.6105 
0.000143631     0.290689     -139.185 
0.000268908     0.290000     -136.397 
6.71113e-05     0.170880      69.4440 
0.00218069      3.78431     -60.3866 
0.00196258      2.10839     -147.591 
0.000961116      2.30671     -58.6529 
0.00105391      4.14661      171.401 
0.00132133      5.69217      143.573 
0.000483913      5.70742     -100.601 
-0.000978465      3.76215      53.6479 
-0.000977729      4.52320     -92.1539 
-0.000493205      2.09153     -122.702 
-0.000154215      2.18790     -166.789 
0.000865883      2.32045     -58.5704 
0.000247423      5.69575     -100.521 
0.000300076      1.26016     -89.0906 
-0.00123329      2.79652      155.268 
-0.000575786      2.19021     -166.535 
-0.000889797      4.39659      35.9316 
0.000686747      1.71470     -110.126 
0.000395299      3.30220      45.1227 
0.000143580      3.47328      100.954 
0.000368025      4.50405      165.470 
9.61060e-05      2.26974      174.691 
0.000397464      3.46983     -167.686 
-0.00127849      4.15935     -54.5904 
0.00123648      5.69759     -100.620 
0.000559821      2.26883      174.943 
-9.32848e-05      5.07871      166.101 
0.000584632      4.67457      162.573 
0.000392330      1.67359     -80.3688 
0.00113550      3.47140      100.792 
-0.000132203      3.47540     -101.957 
-0.000540609      5.55936     -129.819 
-0.000220259      2.09695     -122.932 
-0.00120848      5.08112      165.991 
-0.000176296      2.56977     -98.7292 
-0.000261019      4.48794     -34.4691 
-0.000511713      1.86454      139.132 
-0.00153637      3.56856     -150.634 
0.00102838      2.03435     -35.7996 
-0.000281379      3.42667     -81.6098 
0.000535904      3.93080      77.6609 
4.25585e-05      1.01533      50.1944 
-0.000418888      2.57130     -98.9495 
0.000897029      4.50657      165.347 
0.000308938      4.74912     -42.5253 
0.00114929      1.72409     -110.011 
0.000513430      1.02176      49.7636 
-0.000817485      2.08312     -122.851 
-0.000304678      3.76809      53.5254 
-0.000659605      4.47970     -34.5415 
-0.000118104      2.58103     -134.529 
0.000344146      3.92227      37.5419 
7.73616e-05      8.25523     -133.380 
0.000269882      3.56535     -35.2948 
-0.000757555      4.56637      173.840 
0.000817994      3.46006     -167.651 
0.00100622      4.13673      171.380 
-0.000266261      2.73146      5.25140 
0.000156271      3.93127     -17.4671 
-0.000207474      5.73785      150.218 
0.00103920      6.22223     -126.373 
0.000656587      1.98980     -8.08938 
-0.000718271      6.14649     -84.6790 
-0.000259521      1.31883     -31.0383 
0.000529307      1.66373     -80.3112 
0.000114103      3.33398      168.757 
3.86909e-05      3.30929      45.2449 
0.000586603      7.35832     -133.017 
-0.000147710      5.22024     -138.339 
0.000484308      5.09181      157.969 
0.000501059      2.25887      174.920 
-0.000112368      4.09207      161.919 
0.000847416      3.30226      45.3681 
0.000901367      3.92173     -17.5109 
0.000405440      3.87807     -93.6961 
0.000314507      1.34792     -123.808 
-0.000387982      4.20583     -18.4350 
-7.30837e-05      5.27910      50.6113 
0.000555292      4.66503      162.536 
0.000595937      2.09995     -147.445 
-0.000356364      5.56066     -129.674 
3.62391e-05      3.44401     -143.263 
-0.000490149      4.10157      161.963 
0.000330838      3.55958     -35.1634 
0.000205775      5.72598     -139.746 
0.000303041      4.24834     -50.5398 
-0.000613011      5.28683      50.6801 
0.000721580      3.43001     -143.297 
-6.88427e-05      1.32231     -30.4436 
0.000442630      1.97990     -8.13010 
-0.000526765      2.72151      5.27067 
-0.000494669      4.38850      36.0082 
-0.000575846      5.22689     -138.257 
3.44989e-05      3.33204      168.926 
-0.000504974      6.60960     -140.772 
6.78406e-05      3.91533      38.3627 
3.41603e-05      4.99586     -105.678 
-0.000160390      2.21984      105.414 
0.000699786      2.09086     -178.356 
0.000547366      5.77631     -87.3209 
-9.59805e-05      3.42815     -81.4444 
0.000251369      6.60382     -119.282 
-0.000119832      4.66759     -101.117 
-0.000124734      2.08339      104.170 
-0.000364371      6.52939     -147.064 
0.000790281      4.24199     -50.6441 
-0.000187150      1.85699      138.930 
-0.000172360      2.28758      156.012 
9.59111e-05      3.91372      38.5684 
0.000373279      2.05000      24.1895 
0.00705698      5.37894      40.1738 
-0.000472909      8.26385     -136.961 
-0.000324971      5.29317      50.5964 
-0.000221318      3.77404      53.4034 
3.20738e-05      4.75588     -42.6141 
-0.000768686      2.42405     -64.0692 
0.000742957      2.31193     -58.4412 
0.000462794      5.23042     -176.383 
0.000123560      5.94860     -131.866 
0.000288638      3.14226      12.3113 
-3.18625e-05      2.56143     -98.9843 
0.000201007      5.74008     -139.734 
0.000275824      3.93295      77.5186 
-0.000207003      6.20607     -99.5534 
0.000445355      3.91996      38.6826 
-0.000605793      4.55642      173.826 
6.01649e-05      8.25565     -133.282 
0.000180958      4.76324     -42.5326 
0.000478954     0.850412     -48.8141 
0.000288803      7.35150     -132.960 
-0.00124879      4.15356     -54.7029 
-0.000559795      2.51191     -47.0972 
5.73507e-05      4.99317     -105.567 
-3.01611e-05      2.55988     -98.7632 
-5.93740e-05      2.87847     -112.467 
5.89582e-05      3.55383     -35.0316 
-8.68659e-05      2.57899      23.7820 
8.64455e-05      4.42233     -175.721 
-5.69825e-05      3.43804     -81.4692 
0.000137275      5.95527     -131.937 
0.000113490      3.54565     -35.1244 
-0.000568603      2.08586      104.436 
0.000186850      5.44281     -125.880 
0.000533949      1.67362      40.6384 
0.000111120      3.88068      24.1874 
-0.000111942      6.51181     -149.142 
-0.000704187     0.974166     -107.319 
-0.000140643      1.85801      139.365 
-5.61543e-05      2.57498      23.5784 
0.000108300      6.60872     -119.358 
0.000361763      3.27732     -70.0169 
-0.000157660      6.61593     -140.705 
8.17384e-05      4.42309     -175.591 
5.42290e-05      8.25608     -133.184 
-0.000456101      2.58815      23.6928 
0.000178107      2.41019      19.6378 
-0.000766492      6.79071     -136.551 
0.000810715      1.33454     -107.892 
0.000900002      1.87949     -8.25944 
0.000134015      3.53990     -34.9920 
-0.000103473      4.21275      63.4958 
-0.000451202      6.20442     -99.4623 
0.000343069      3.85502      26.8309 
2.69746e-05      2.71007      53.5529 
-7.84618e-05      5.56836     -129.608 
-0.000196155      6.51695     -149.066 
-7.80403e-05      4.36873     -147.147 
-0.000102560      6.52396     -147.138 
0.000394912      5.67480     -84.6410 
0.00117355      7.34418     -133.014 
-2.64071e-05      2.41969     -64.2821 
0.000539552      2.09117     -178.082 
0.000394626      4.41312     -175.581 
0.000344044      4.91501      135.907 
-2.61555e-05      2.55838     -98.5418 
0.000311662      1.67195     -80.7067 
0.000363392      3.20713      152.316 
0.000127779      3.53418     -34.8592 
0.000939290      3.14014      12.1330 
0.000472607      2.78620     -153.803 
-0.000263022      4.09849      162.096 
0.000114296      3.58755      137.146 
7.50902e-05      3.88981      24.1270 
-0.000617463      4.21723      63.3742 
-0.000235698      2.71155      5.29008 
0.000760424      5.16462     -157.457 
4.94966e-05      5.67575     -84.5405 
0.000355203      3.92604      37.1326 
-0.000400901      5.84406     -145.739 
-0.000275424      3.17309     -20.0911 
-2.53069e-05      4.19634     -18.4781 
7.30101e-05      5.74655     -139.658 
-7.32824e-05      4.38041      36.0851 
0.000180595      5.96196     -132.009 
2.51455e-05      3.98540      7.64214 
0.000298089      3.88805     -93.6866 
0.00115326      7.09567     -121.809 
-4.92277e-05      1.66589      175.179 
0.000122397      3.52026     -34.8187 
-7.26484e-05      4.36033     -147.075 
-9.35222e-05      5.56199     -129.529 
0.000219756      3.21741     -134.622 
-0.000136321      2.91371      163.244 
-0.000382608      3.64281      16.0966 
-0.000205515      5.30091      50.6650 
-2.43334e-05      2.74002      89.7909 
9.41483e-05      3.91220     -17.5550 
-7.08514e-05      3.86039     -64.6962 
0.000201199      3.92622      38.7966 
-0.000470402      5.64263     -78.0329 
0.000263964      5.45092     -125.819 
-0.000370321      2.74000      90.0000 
6.22542e-05      6.60492     -119.476 
-0.000320684      6.60819     -140.650 
0.000149760      4.22452      122.825 
0.000191238      1.99970     -8.04906 
0.000336090      3.51456     -34.6848 
2.36509e-05      3.97549      7.66131 
0.000492964      5.46125     -172.953 
0.000141408      6.12614     -139.236 
-0.000147506      2.27844      155.910 
0.000330112      3.27136     -69.7924 
2.33532e-05      2.70204      53.4270 
8.99034e-05      2.73002     -36.6600 
2.33326e-05      3.04237     -155.120 
4.48649e-05      3.45245     -167.453 
-2.33137e-05      7.19261     -143.879 
-0.000167878      3.38813     -84.0707 
0.000723975      3.95386     -11.8215 
2.31648e-05      3.28075     -69.8528 
2.31245e-05      8.25654     -133.086 
-2.31129e-05      4.51320     -92.1587 
0.000143463      3.88479      24.3219 
0.000451308      5.84778     -104.559 
-6.64976e-05      2.55548     -98.0984 
-4.47771e-05      4.66953     -101.238 
-0.000472219      4.38631      36.1906 
0.000164356      1.49683      77.2636 
0.000132533      5.50205     -91.5622 
-0.000156135      2.06930     -122.768 
0.000203806      6.74003     -142.960 
-0.000282224      8.25654     -136.914 
-0.000354523      2.58414      23.4897 
4.44330e-05      5.76064     -139.647 
-4.41219e-05      4.35194     -147.004 
-8.50952e-05      3.86467     -64.5622 
