! Center RA: 09 58 47.24511,  Dec: +65 33 54.81805 (2000.0)
! Established model.
! Flux (Jy) Radius (mas)  Theta (deg)  Major (mas)  Axial ratio   Phi (deg) T \
! Freq (Hz)     SpecIndex
0.00390439     0.210238      154.654 
 0.0396690     0.219317      155.772 
 0.0402174     0.228473      156.801 
 0.0294705     0.237697      157.751 
 0.0325245     0.250799      156.501 
0.00643719     0.174643     -13.2405 
 0.0274618     0.260000      157.380 
 0.0272486     0.186815     -15.5241 
0.00542438     0.189737     -18.4349 
 0.0169419     0.269258      158.199 
0.00342967     0.196977     -23.9625 
  0.102391     0.201246     -26.5650 
 0.0149981     0.273130      156.251 
0.00455123     0.111803     -169.695 
0.00562354     0.123693     -165.964 
 0.0333667     0.282312      157.068 
0.00644573     0.136015     -162.897 
0.00667669     0.291548      157.834 
 0.0109644     0.286356      155.225 
 0.0216153     0.295466      156.038 
0.00703284     0.290689      153.435 
0.00754203     0.299666      154.290 
0.00102755     0.286531      150.751 
 0.0121216     0.295296      151.699 
 0.0110284     0.308707     -65.0952 
0.00116337     0.412311     -22.8337 
0.00335954     0.304631     -66.8014 
0.00491084     0.427200     -20.5560 
0.000352750     0.300832     -68.5523 
0.00174096     0.306757     -70.9744 
0.00486982     0.303645     -72.7585 
0.00252970     0.442719     -18.4349 
0.00144165     0.421545     -22.3062 
0.00238948     0.300832     -74.5778 
0.00359150     0.416293     -24.1022 
0.00178428     0.298329     -76.4296 
0.00145263     0.296142     -78.3106 
 0.0118310     0.282843     -98.1301 
0.00201708     0.411461     -25.9423 
0.00350018     0.425441     -23.5523 
0.00116668     0.440114     -21.3179 
0.000480901     0.420476     -25.3462 
0.000976860     0.313050     -63.4349 
0.00170798     0.434626     -23.0255 
0.000727884     0.455412     -19.2307 
0.000443432     0.317648     -61.8214 
0.000806875     0.324500     -56.3099 
0.000364480     0.449444     -20.8545 
0.000127743     0.403113     -29.7449 
0.000485591     0.471275     -17.2815 
0.000922966     0.334216     -51.0725 
0.00374356     0.272947     -98.4270 
0.000331622     0.391152     -32.4712 
0.000324006     0.464866     -18.8247 
0.00175211     0.346554     -46.1691 
0.00175455     0.480833     -16.9275 
0.00121366     0.340588     -49.7636 
0.000325343     0.380132     -35.3625 
0.000944388     0.370135     -38.4181 
0.000151625     0.474342     -18.4349 
  0.199568    0.0412311      14.0362 
 0.0509957    0.0300000      0.00000 
0.00653675    0.0316228      18.4349 
0.00959374    0.0200000      0.00000 
0.00126424    0.0100000      0.00000 
0.00125190    0.0509902      11.3099 
0.00123961      0.00000      0.00000 
0.00122773    0.0608276      9.46232 
0.00121628    0.0200000     -180.000 
0.00120504    0.0707107      8.13010 
0.00119452    0.0509902     -168.690 
0.00118454    0.0806226      7.12501 
0.00117483    0.0608276     -170.538 
0.00231264    0.0905538      6.34019 
0.00229446    0.0707106     -171.870 
0.00112999     0.100499      5.71059 
0.00331656    0.0806226     -172.875 
0.00111357     0.111803      10.3048 
0.00324875     0.121655      9.46232 
0.00318316    0.0905538     -173.660 
0.00413494     0.131529      8.74616 
0.00306168     0.100499     -174.289 
0.00488612     0.141421      8.13010 
0.00485644     0.110454     -174.806 
0.00724020     0.151327      7.59464 
0.00457761     0.121655     -170.538 
0.00841076     0.131529     -171.254 
0.00970781     0.161245      7.12502 
 0.0603152     0.141421     -171.870 
0.00215703     0.171172      6.70984 
0.00569408     0.172627      10.0080 
 0.0121193     0.182483      9.46232 
 0.0132028     0.192354      8.97263 
 0.0125504     0.202238      8.53076 
0.00765846     0.203961      11.3099 
0.00118481     0.143178     -167.905 
 0.0111732     0.228254     -28.8108 
0.000194966     0.206155      14.0362 
0.000192297     0.208806      16.6992 
0.000376826     0.211896      19.2900 
0.000367609     0.215407      21.8014 
0.000358742     0.219317      24.2277 
0.000337441     0.223607      26.5650 
0.00943412     0.228254      28.8108 
0.000420697     0.152315      156.801 
0.000275993     0.145602     -164.055 
0.000400580     0.156525      153.435 
0.000382831     0.161245      150.255 
0.000831537     0.166433      147.265 
0.00134958     0.172046      144.462 
0.00525786     0.178045      141.843 
0.00639615     0.332415      173.089 
0.00796155     0.413401     -32.1523 
0.00190291     0.322490      172.875 
0.000802007     0.301496      174.289 
5.88498e-05     0.342345      173.290 
0.00269676     0.420476      177.274 
0.000378887     0.291548      174.094 
0.000480048     0.281603      173.884 
0.000981425     0.271662      173.660 
0.00134007     0.261725      173.418 
0.00114528     0.251794      173.157 
0.000107205     0.241868      172.875 
0.00294607     0.292746      172.147 
0.00192702     0.302655      172.405 
0.00263892     0.343657      171.634 
0.000314891     0.282843      171.870 
0.000206651     0.272947      171.573 
0.000168003     0.253180      170.910 
0.000376718     0.243310      170.538 
0.000328314     0.345253      169.992 
0.000978393     0.240416      163.072 
0.000635281     0.202237      81.4692 
0.00165484     0.250000      163.740 
0.00229711     0.203961      78.6901 
0.00131028     0.259615      164.358 
0.00348878     0.218403      74.0546 
0.000880883     0.269258      164.932 
0.000651898     0.278927      165.466 
0.000477592     0.288617      165.964 
0.000339361     0.298329      166.430 
0.000184250     0.315753      169.046 
0.000173761     0.308058      166.866 
0.000331312     0.325576      169.380 
0.00123046     0.324500      56.3099 
0.000405975     0.335410      169.695 
3.88525e-05     0.317805      167.276 
0.000154900     0.191050      83.9910 
0.000401834     0.355106      170.272 
8.63287e-05     0.224722      159.146 
0.000245805     0.180278      86.8202 
5.16701e-05     0.215407      158.199 
0.000302817     0.364966      170.538 
4.93781e-05     0.170294      93.3665 
0.00164038     0.667083     -66.1247 
0.00486699     0.445982      47.7263 
0.00202854     0.161245      119.745 
0.000615909     0.662118     -64.9831 
0.00130595     0.164012      127.569 
0.000644937     0.167631      107.354 
0.000296592     0.286356      167.905 
0.00172224     0.698570     -76.7595 
0.000282148     0.296142      168.311 
0.000769286     0.661891     -63.0478 
0.00264331     0.466905      46.7357 
0.000462426     0.172627      100.008 
0.000754088     0.450000     -126.870 
7.93611e-05     0.305941      168.690 
0.000308861     0.333766      171.384 
0.00127632     0.452769      46.7899 
0.00229870     0.180278      93.1798 
0.000487316     0.353553      171.870 
0.000278635     0.657647     -61.8763 
0.00221326     0.464004     -127.117 
0.000133133     0.662420     -61.1134 
0.000636878     0.363456      172.093 
0.000893492     0.658635     -59.9314 
0.00362256     0.696348     -77.5604 
0.000787993     0.373363      172.304 
0.00167375     0.190263      86.9872 
0.000456873     0.655134     -58.7363 
0.00188370     0.383275      172.504 
0.00191245     0.660379     -57.9946 
0.00109494     0.458039     -126.119 
0.00187245     0.657343     -56.7934 
0.000984428     0.393192      172.694 
0.000480512     0.460109      178.755 
0.000116807     0.478017     -127.349 
0.00123888     0.472017     -126.384 
0.000529222     0.374833      170.789 
0.000778908     0.694262     -78.3664 
0.000924274     0.460435      177.510 
0.000497403     0.473814      45.8551 
0.000264776     0.347131      168.366 
0.000218424     0.654599     -55.5816 
0.00235478     0.194165      145.491 
0.00268888     0.170294      130.236 
0.00160270     0.424382     -124.439 
0.00292351     0.439318      48.6914 
0.00110750     0.166433      122.735 
0.000585881     0.165529      115.017 
0.000471684     0.174642      103.241 
0.00224219     0.438292     -124.778 
0.00224399     0.181108      96.3402 
0.00233346     0.384708      171.027 
0.000381984     0.403113      172.875 
0.000135158     0.190000      90.0000 
0.000698709     0.452217     -125.096 
0.000482547     0.200250      87.1376 
0.000160122     0.281603     -106.504 
0.000103755     0.212132      81.8699 
0.00399415     0.176918      137.291 
2.53056e-05     0.366742      168.996 
0.00340422     0.169706      135.000 
0.00154420     0.404969     -122.905 
0.00182443     0.394588      171.254 
0.000300669     0.418808     -123.311 
7.32539e-05     0.284605     -108.435 
0.000270965     0.269258     -105.068 
0.000526840     0.254951     -101.310 
0.000441367     0.190263      93.0128 
0.000781060     0.275136     -109.093 
6.02690e-05     0.331210     -118.887 
0.000128300     0.245153     -101.768 
0.000174815     0.349857     -120.964 
0.00124641     0.243310     -99.4623 
0.000222596     0.230868     -94.9697 
0.000274098     0.368917     -122.829 
0.000311223     0.220000     -90.0000 
0.000448659     0.388330     -124.509 
0.000597380     0.210950     -84.5597 
4.67174e-05     0.394081     -125.707 
0.000477899     0.408044     -126.027 
0.000886884     0.203961     -78.6901 
0.00100044     0.414005     -127.147 
0.00136501     0.199249     -72.4744 
0.00127031     0.434166     -128.454 
0.000173181     0.196977     -66.0375 
0.00340205     0.186011      143.746 
0.000180418     0.284429      169.875 
7.91626e-05     0.311448      174.472 
0.000331394     0.321403      174.644 
0.000387083     0.330605      176.532 
0.00111753     0.448219     -128.660 
0.00115107     0.161555      111.801 
0.000374539     0.340588      176.634 
0.000536058     0.350143      178.363 
0.000722717     0.164924      104.036 
0.000912719     0.360139      178.409 
4.45737e-05     0.276586      167.471 
0.000430511     0.304138      170.538 
0.000245038     0.312570      172.648 
0.000277510     0.331361      174.806 
0.000660659     0.341321      174.958 
0.000836182     0.350571      176.730 
0.000250312     0.158114      108.435 
0.000441288     0.360555      176.820 
0.000248578     0.162788      100.620 
0.00115305      1.02591     -46.9749 
0.000698922      1.02650     -47.7639 
0.00233566      1.00265     -51.0725 
0.000290589      1.00424     -51.8748 
0.00612300     0.996393     -51.5198 
0.000660254     0.205913      150.945 
8.76788e-05     0.294279      170.218 
0.000466348     0.295466     -113.962 
0.00184590     0.408167     -59.0362 
3.49279e-05     0.257099     -103.496 
0.000101726     0.317648     -118.179 
0.000319754     0.360000     -180.000 
6.62303e-05     0.241868     -97.1250 
0.000155263     0.336155     -120.379 
3.18531e-05     0.230217     -92.4895 
6.09076e-05     0.230000     -90.0000 
0.00119359     0.370000     -180.000 
0.000140952     0.220907     -84.8056 
5.79871e-05     0.341321     -121.827 
0.000395946     0.360555     -123.690 
0.000175640     0.213776     -79.2157 
0.000970929      1.00170     -58.0552 
0.000155745     0.208806     -73.3008 
2.13424e-05     0.380132     -125.362 
0.000301260     0.386005     -126.573 
0.000281747     0.202485     -69.7751 
0.000386859      1.00125     -50.2677 
0.000755798     0.380000     -180.000 
0.00308846     0.202485      147.095 
0.000466015     0.322490     -119.745 
0.000112323     0.314006      170.838 
0.000143656     0.192094      141.340 
0.000105352     0.184391      139.399 
0.000499406     0.176918      132.709 
0.000172939     0.346699     -123.232 
0.000101058     0.366197     -124.992 
0.000121716     0.172046      125.538 
0.000176720     0.372021     -126.254 
0.000110308     0.994887     -50.7106 
0.000200060     0.392046     -127.747 
0.00816713     0.517880      10.0080 
0.00372235     0.516236      8.91493 
0.000320555     0.527731      9.81930 
0.00124290     0.526118      8.74616 
0.000592786     0.600083     0.954841 
0.000369186     0.508035      10.2040 
0.000794132     0.610082     0.939191 
0.000253356     0.509902      11.3099 
0.000540390     0.500100      11.5346 
0.00146961     0.620081     0.924045 
0.000529210     0.490306      11.7683 
0.000332886     0.480521      12.0115 
0.000414082     0.360139      1.59114 
8.88309e-05     0.492443      12.9074 
5.17208e-05     0.504480      13.7608 
0.00260629     0.210950      148.570 
5.09558e-05     0.453431      48.5763 
0.00250139     0.460109      47.6425 
0.000109087     0.200000      143.130 
0.000457096     0.183848      135.000 
0.000604226     0.178045      128.157 
0.000783814     0.278568     -111.038 
0.000537279     0.370135      178.452 
0.00887020     0.866487     -18.8532 
-0.00293535      3.96057      79.9669 
0.000186123      2.28650     -51.9272 
0.00332322      2.29268     -51.7305 
0.00182527      3.43796     -43.3500 
-0.000177143      3.94899      80.0845 
-0.00248946      4.01214      25.5432 
-0.000596573      2.18289      16.7747 
-0.00168417      2.08435     -17.3048 
0.00137926     0.968297      128.290 
0.000253524      1.67451      7.54942 
0.00157410      4.83617     -23.6497 
0.000325065      1.68443      7.50473 
-0.00150043      2.17332      16.8508 
0.00150673      3.55764      38.6095 
-0.00147017      4.97752      26.3591 
0.00134004      2.53411     -119.296 
0.00245327      2.94450     -75.4446 
0.000608374      1.68315      7.16724 
0.000892284      2.53902     -119.493 
0.00162669      2.46595      173.480 
-0.000297951      4.18320      173.962 
7.54275e-05      4.73179     -91.5743 
0.000945902      4.74207     -91.6918 
0.000215217      3.93707      155.062 
0.000537748      4.84481      107.911 
0.000554003      3.78863      123.480 
-0.000356536      5.81344     -20.6483 
0.000936984      3.44484     -43.4709 
0.000947812      5.04829     -10.7312 
0.000681658      1.69307      7.12502 
-0.000805085      4.17433      173.811 
-0.000590582      2.75073     -62.5034 
-0.000343597      1.90032     -40.7321 
0.00152367      4.42872      166.152 
0.000205035      1.73142      92.3171 
0.00125016      4.70346     -43.7078 
-0.000627582      5.57230      33.0627 
-0.000508385      1.92211     -124.186 
-6.81927e-05      4.45660     -97.3483 
-0.000329025      5.81697     -20.7405 
-0.000559268      4.45789     -97.4757 
-0.000820136      3.94160      104.847 
-0.000498721     0.633246      164.427 
-0.000830041      2.98412     -121.293 
0.000439779      5.68705      122.433 
0.000130671      3.54983      38.7102 
6.59070e-05      1.72290      93.3274 
0.000130642      4.82701     -23.6973 
0.00104984      4.93089      130.311 
-0.000599345      1.89275     -40.9296 
0.000107975      3.93224      154.869 
0.000128153      1.71493      94.3475 
-0.000250739      1.39004     0.412193 
0.000928627      4.82300     -23.5886 
0.00109674     0.974525      128.752 
0.000478704      3.78312      123.354 
-6.35405e-05     0.768440     -55.0691 
0.000428488      1.70300      7.08329 
-0.000910650      3.07826     -20.1421 
-0.000937379      6.41511     -29.9221 
-6.29224e-05      5.58252     -17.2989 
-0.00103521      3.95884      80.1094 
0.000185926      1.71572      94.6804 
0.00124255      5.53802      143.296 
-0.000355492      5.82633     -20.7057 
-0.000411232     0.762758     -55.6849 
-0.000620426      5.59504     -17.3662 
-0.000784805      3.78382      177.425 
-0.000412976      4.16438      173.797 
0.000179793      2.22794      43.7270 
0.00106499      5.03846     -10.7524 
-0.000660311      4.47028     -89.3591 
-0.000516454      2.37192     -65.5960 
0.000817084      3.45172     -43.5914 
0.000178735      1.71657      95.0131 
-0.000550050      1.38014     0.830315 
0.00116852      4.95649     -62.0907 
-0.000172731      6.48608      30.9941 
-0.000693637      4.97309      26.2559 
0.000173869      5.02508      30.4945 
0.000228668      5.67861      122.487 
5.81107e-05      1.71747      95.3454 
0.000282294      1.71292      7.04204 
-5.80681e-05      1.39014     0.824343 
-0.000449954      2.17624      17.1027 
-0.000384912     0.690652      34.3803 
-0.000712617      5.90018      24.0019 
-0.000775407      1.91651     -123.939 
0.000490138      4.13319      10.0321 
-0.000658377      1.54315      112.077 
0.000171114      1.70848      95.7106 
-0.000261593      5.63773      118.383 
0.000653597      2.52923     -119.099 
0.00123196      2.65092      88.4869 
-5.67127e-05     0.626418      163.301 
0.000112256      4.00656     -29.1241 
-0.000801639      2.08734     -17.5669 
0.000433518      6.41249     -49.5538 
-0.000165269      4.04684     -12.5595 
0.000261595      2.22104      43.5406 
-0.00354642      6.41012     -29.8447 
0.000260637      3.67143      81.3844 
0.000373715      5.03370      30.4367 
0.000268217      4.14132      9.87173 
0.000486417      1.70950      96.0441 
-0.000220043      4.15337      173.919 
0.000159868      4.85433      107.875 
-0.00103899     0.623618      164.181 
0.000464164      5.68169      122.347 
0.000262102      3.77763      123.227 
-5.49001e-05     0.757166     -56.3099 
-0.000156793      5.83568     -20.6710 
0.000108503      3.30248     -61.4172 
-0.000578211      1.69806      52.6577 
0.000664693      4.83216     -23.5411 
-0.000359088      5.57776      33.1488 
-0.000207148      4.44798     -97.4925 
0.000413339      3.99782     -29.1938 
0.000192738      1.72285      7.00127 
0.000161012      6.62069      43.5312 
-0.000537713     0.616847      163.034 
-0.000900190      6.49123      31.0697 
-0.000107165     0.754520     -55.2568 
0.00114191      3.66995      81.5387 
-0.000362968      4.14343      173.904 
-5.35519e-05      2.75536     -62.3189 
-0.000636509      2.36780     -65.8164 
0.000154413      4.41172     -104.036 
0.000493094      1.73159      6.63251 
-0.000586048      2.18580      17.0256 
-0.000254345      4.03491     -12.4518 
5.27549e-05      6.61345      43.5909 
0.000155153      3.30651     -61.6523 
-0.000985433      4.07506      4.92711 
0.000104033     0.796492     -151.504 
8.98089e-05      4.12689      10.3297 
-0.000301322     0.748866     -55.8855 
0.000256670      6.60621      43.6507 
-0.000153779      1.54693      112.420 
-0.00105707      5.90931      23.9625 
-0.000279805      2.97894     -121.129 
0.000349582      1.71058      96.3772 
0.000622446      4.48693     -165.809 
5.14100e-05      3.80185     -4.52585 
-5.14212e-05      1.88521     -41.1287 
9.94356e-05      2.30673     -51.6893 
0.000833661      6.40600     -49.6218 
5.11783e-05      2.46710      173.249 
0.000151386      5.31812     -135.914 
0.000484372      2.51080     -118.811 
0.000747838      3.81182     -4.51399 
-9.91665e-05      2.76422     -62.4152 
0.000569800      4.42634      166.278 
-0.000148914     0.682422      34.8545 
0.000481196     0.787718     -151.157 
0.000379081      4.42604     -142.897 
0.000242116      1.79279      3.19756 
5.03794e-05      3.69500     -119.687 
-0.00168612      4.27739     -169.084 
0.000515911      1.73994     -154.466 
9.97365e-05      4.21769      154.286 
-0.000334802      5.60758     -17.4333 
-0.000953215      1.53769      112.563 
5.02355e-05      2.36681     -163.556 
0.000196425      3.30177     -61.8050 
0.000986806      4.13495      10.1685 
-0.000238156      3.38126      162.798 
-0.000569798      1.70602      52.8614 
0.000340635      6.59898      43.7106 
0.000146233      1.74040      6.26748 
4.96933e-05      2.45601      173.454 
-0.000386246      4.13349      173.889 
0.00105456      3.69005     -119.552 
-0.000305141      1.38033      1.24536 
0.000189889      5.04232      30.3791 
0.000640609      5.32508     -135.837 
0.000415241      2.57099      13.4957 
0.000189378      4.93737      130.400 
0.000232944      2.35440     -163.720 
0.000526649      4.40202     -104.068 
0.000406598      4.12495     -155.050 
0.000190844      3.89487      168.748 
0.000401521      4.99235      44.5131 
0.000142868      4.20868      154.226 
-4.84931e-05      1.13004     -143.637 
-0.000190395     0.586003      64.7468 
-0.000572486      4.44929     -97.6202 
-0.00144126      6.91563      44.6485 
