! Center RA: 10 58 29.60521,  Dec: +01 33 58.82359 (2000.0)
! Established model.
! Flux (Jy) Radius (mas)  Theta (deg)  Major (mas)  Axial ratio   Phi (deg) T \
! Freq (Hz)     SpecIndex
 0.0862788    0.0781025      140.194 
 0.0698757    0.0707107      135.000 
 0.0250293    0.0640312      128.660 
0.00710182    0.0583095      120.964 
 0.0102825    0.0538517      111.801 
 0.0403291   0.00999997      180.000 
 0.0604351    0.0223606      153.435 
 0.0379033    0.0360555      146.310 
 0.0500621    0.0282842      135.000 
0.00697031    0.0424264      135.000 
 0.0449430    0.0360555      123.690 
 0.0445212    0.0316228      108.435 
 0.0370280    0.0300000      90.0000 
0.00591035    0.0447213      116.565 
 0.0314248    0.0500000      126.870 
 0.0120339    0.0565685      135.000 
0.00806129    0.0640312      141.340 
0.00407942    0.0721110      146.310 
0.00221915    0.0806225      150.255 
0.00177971    0.0894426      153.435 
0.000956211    0.0984886      156.038 
 0.0142225     0.107703      158.199 
0.00344413      1.85648     -62.0546 
0.000942491      1.87000     -61.9275 
0.00109817      2.21371     -63.4349 
0.00104605      2.20477     -63.3187 
0.000613270      1.85181     -62.3279 
0.00118015      2.21820     -63.2039 
0.00465967      1.67200     -53.2672 
0.000394563      1.83831     -62.4592 
0.000192418      1.82483     -62.5924 
0.00250133      2.20928     -63.0870 
0.000189699      1.80679     -63.0095 
0.000553701      1.79335     -63.1492 
0.000179569      1.87417     -62.3411 
0.000177477      1.77992     -63.2910 
0.000514807      1.77544     -63.5793 
0.000172790      1.89652     -62.3540 
0.000166631      1.91426     -62.6318 
0.00230669      2.22272     -62.9738 
0.000799808      1.76204     -63.7258 
0.000162867      1.92315     -62.7687 
0.00254828      1.97730     -64.8606 
0.000739562      1.75764     -64.0181 
0.000298271      1.96352     -64.3485 
0.00314359      1.67800     -52.9935 
0.00119619      1.74428     -64.1695 
0.000554560      2.23164     -63.0905 
0.000137668      1.96825     -64.7369 
0.000509991      2.23618     -62.8620 
0.000133359      2.24056     -63.2062 
0.000258608      2.24508     -62.9784 
0.000129202      2.24949     -63.3210 
0.000126567      2.25843     -63.4349 
0.000249096      2.27192     -63.8861 
0.00115256      1.73994     -64.4659 
0.000121508      2.28090     -63.9967 
0.000236294      2.28554     -64.3319 
0.000117992      2.22729     -62.7447 
0.000228753      2.21840     -62.6264 
0.000450989      2.29456     -64.4400 
0.000429437      1.98215     -65.2450 
0.000432507      1.97307     -65.1235 
0.000219934      2.20952     -62.5072 
0.000215730      2.29930     -64.7724 
0.000210961      2.21416     -62.2776 
0.000996607      1.73566     -64.7637 
0.000312400      2.30358     -64.5473 
0.000203086      2.20066     -62.3870 
0.000491823      2.30835     -64.8781 
0.000385134      1.97798     -65.5081 
0.00192263      1.67003     -52.7870 
0.000478425      2.20531     -62.1568 
0.000192065      1.96888     -65.3875 
0.000187597      2.31262     -64.6538 
0.000865149      1.73142     -65.0631 
0.000271492      2.31741     -64.9831 
0.000180698      2.19180     -62.2658 
0.000438248      1.96474     -65.6526 
0.000674033      2.32166     -64.7595 
0.000968286      2.19647     -62.0349 
0.000325268      1.96064     -65.9188 
0.000388447      1.72722     -65.3639 
0.000461409      2.33071     -64.8643 
0.000304943      1.95658     -66.1862 
0.00133394      1.67610     -52.5148 
0.000432484      1.73220     -65.8024 
0.000216986      2.18296     -62.1437 
0.000495506      2.33497     -64.6422 
0.000285080      1.95256     -66.4546 
0.00157890      2.18765     -61.9121 
0.000461343      1.72812     -66.1048 
0.000201641      1.94859     -66.7242 
0.000363788      2.34401     -64.7468 
0.000191785      1.94466     -66.9948 
0.000436217      2.34830     -64.5262 
0.000303298      1.72409     -66.4087 
0.000242205      1.94077     -67.2666 
0.000407609      2.43824     -61.8584 
0.000865046      1.68220     -52.2445 
0.000172716      1.93693     -67.5394 
0.000282011      1.72540     -67.1502 
0.000111078      1.94618     -67.6519 
0.000617893      2.44706     -61.9688 
5.43465e-05      1.93313     -67.8133 
5.40098e-05      1.72699     -67.8906 
0.000685724      1.73104     -69.3665 
0.000157515      1.94240     -67.9247 
5.12752e-05      2.34883     -65.0715 
0.000149809      1.93866     -68.1986 
0.000189072      2.34463     -65.2931 
4.95422e-05      1.72154     -67.4569 
0.000777657      1.68834     -51.9762 
0.000142894      1.93497     -68.4735 
0.00122799      2.19237     -61.6815 
0.000997770      2.45589     -62.0785 
9.14827e-05      1.93132     -68.7495 
0.000249403      1.86271     -70.8841 
0.00126061      1.72169     -69.2492 
0.000207380      2.34047     -65.5155 
4.35440e-05      1.94427     -68.5817 
0.000165067      1.94064     -68.8565 
0.000549833      1.69452     -51.7098 
0.000150856      1.94997     -68.9625 
0.000487190      2.17883     -61.7883 
3.81467e-05      2.33634     -65.7387 
0.000207314      2.34139     -66.0624 
0.000307295      1.87216     -70.9844 
3.64786e-05      1.70857     -51.6544 
0.000630031      1.71479     -51.3924 
3.48776e-05      1.94641     -69.2372 
3.39557e-05      1.95931     -69.0675 
0.000159806      1.95576     -69.3411 
0.00129455      2.46473     -62.1873 
9.14609e-05      2.33735     -66.2864 
0.000699226      1.88162     -71.0836 
0.000548924      1.72105     -51.1322 
2.97465e-05      1.95226     -69.6157 
0.00154408      1.71234     -69.1307 
8.48662e-05      1.96512     -69.4440 
0.000162351      2.34252     -66.6087 
0.000137049      2.19713     -61.4520 
0.000103511      1.96163     -69.7174 
0.000506186      2.18358     -61.5571 
2.56936e-05      2.42942     -61.7472 
0.000531668      1.72734     -50.8740 
7.21784e-05      2.34776     -66.9296 
0.000116450      1.97101     -69.8182 
9.18297e-05      2.42062     -61.6351 
0.000108770      2.34386     -67.1545 
0.000103221      1.96759     -70.0915 
0.000135956      2.41183     -61.5223 
0.000150857      2.34923     -67.4739 
0.000549496      1.73367     -50.6176 
0.000752857      1.97041     -54.2933 
0.000146056      2.18836     -61.3269 
5.70079e-05      1.97699     -70.1902 
0.000137344      1.97363     -70.4633 
0.000238922      2.35468     -67.7919 
7.97264e-05      2.20676     -60.9958 
4.68706e-05      1.98305     -70.5600 
0.000205228      1.97975     -70.8329 
9.60675e-05      2.19317     -61.0976 
1.38924e-05      1.55596     -56.0035 
7.87078e-05      1.55039     -56.3099 
3.94727e-05      2.21163     -60.7693 
0.000137272      2.35091     -68.0176 
0.000115469      1.74003     -50.3631 
4.86774e-05      1.54486     -56.6185 
7.89361e-05      2.27247     -59.5984 
5.97014e-05      1.97649     -71.1067 
0.000211360      1.96229     -54.1229 
2.32611e-05      1.53938     -56.9293 
0.000119464      1.98595     -71.2001 
8.66000e-05      1.53395     -57.2423 
1.07881e-05      2.19802     -60.8694 
2.07417e-05      1.74643     -50.1104 
4.67931e-05     0.260000     -22.6199 
0.00244909      2.04963     -70.3274 
0.00329218      2.04629     -70.5910 
0.00166719      2.05302     -70.0646 
0.000677201      2.05645     -69.8027 
   1.19559    0.0282843     -45.0000 
  0.180443    0.0223607     -63.4348 
  0.166415    0.0141422     -45.0000 
0.00432208     0.134536     -41.9872 
 0.0362471     0.148661     -42.2737 
 0.0286651     0.162788     -42.5105 
 0.0579450    0.0100001      0.00000 
 0.0164751     0.155564     -45.0000 
 0.0154874     0.169706     -45.0000 
 0.0387910     0.162788     -47.4895 
 0.0752624    0.0141422      44.9997 
 0.0241935     0.170294     -49.7636 
 0.0364915     0.164012     -52.4314 
  0.193182    0.0223607      63.4347 
0.00378128     0.172047     -54.4623 
 0.0553465     0.166433     -57.2648 
0.00593679     0.161245     -60.2551 
 0.0155086     0.170000     -61.9275 
 0.0536878     0.165529     -64.9831 
 0.0286999     0.170880     -69.4440 
0.00188007     0.214709     -27.7585 
0.00784422     0.167631     -72.6460 
0.00407687     0.228473     -23.1986 
0.00507020     0.174643     -76.7595 
0.00931814     0.237697     -22.2490 
 0.0163029     0.172627     -79.9920 
0.00375763     0.294279     -99.7824 
0.000967451     0.292746     -97.8533 
0.00876028     0.445982     -47.7263 
0.00513537     0.452769     -46.7899 
0.000358893     0.446878     -49.5378 
0.00339606     0.501199     -61.3895 
0.00149689     0.510000     -61.9275 
0.000684083     0.466905     -43.2643 
0.000174725     0.653070     -25.3879 
0.000229131     0.662118     -25.0169 
0.000183162     0.671193     -24.6559 
0.000926527     0.161555     -68.1986 
0.00998819      1.25686     -15.6949 
0.00257166      1.24040     -16.3895 
0.000333741      1.23762     -15.9454 
0.00145381     0.290172     -91.9749 
0.00160558     0.540370     -87.8789 
0.000732247     0.530377     -87.8389 
0.00172796      2.51269     -76.1850 
0.000102583     0.540093     -88.9391 
0.000933492      1.24908     -75.6300 
0.00101066     0.311448     -84.4725 
9.45386e-05      1.26127     -75.3027 
0.00107216      1.26384     -74.8642 
0.000271517      2.73470     -51.8310 
0.000550447      2.51509     -75.9638 
0.000341781      2.72853     -51.9961 
0.000223093     0.301496     -84.2894 
0.000143203      2.73029     -52.2907 
0.00115292     0.530848     -86.7603 
0.00188197     0.300666     -86.1859 
0.000173144      2.51754     -75.7430 
0.000169493      2.72419     -52.4571 
6.71579e-05      2.57422     -72.1281 
3.29147e-05      2.57730     -71.9166 
0.000156857      2.71811     -52.6242 
9.61159e-05      2.58043     -71.7055 
3.13562e-05      2.71205     -52.7921 
6.20918e-05      2.58358     -71.4949 
3.10239e-05      2.71400     -53.0879 
0.000454022      1.26649     -74.4275 
6.10951e-05      2.70801     -53.2570 
9.05894e-05      2.51032     -76.4066 
6.04741e-05      2.58677     -71.2849 
5.98125e-05      2.69236     -54.0665 
0.000116914      2.59000     -71.0754 
2.94870e-05      2.68650     -54.2392 
0.000170468      2.50799     -76.6287 
2.92093e-05      2.68302     -54.7106 
8.59989e-05      2.67726     -54.8853 
0.000111641      2.59326     -70.8664 
5.57595e-05      2.67152     -55.0607 
8.14235e-05      2.66580     -55.2369 
0.000655062      2.50569     -76.8511 
0.000158690      2.59656     -70.6579 
5.23405e-05      2.72239     -52.1619 
7.84553e-05      2.66011     -55.4138 
5.13189e-05      2.82002     -52.9269 
0.000841370      1.28445     -73.2580 
2.54773e-05      2.65445     -55.5915 
0.000173115      2.59988     -70.4499 
0.000865723      2.50344     -77.0740 
7.47404e-05      2.65708     -55.8913 
0.000160928      2.65149     -56.0702 
0.000177288      2.83403     -52.8875 
2.40469e-05      1.23223     -76.8660 
0.000205299      2.60325     -70.2425 
0.000198767      1.21598     -78.1356 
0.000218521      2.50122     -77.2973 
0.000294679      2.64592     -56.2499 
0.000386990      1.28736     -72.8318 
4.37038e-05      2.72685     -51.7012 
0.000800521     0.290689     -86.0548 
0.000127135      2.60665     -70.0357 
6.30100e-05     0.521536     -85.6013 
4.09299e-05      2.84007     -52.7266 
6.07984e-05      2.64038     -56.4303 
2.08563e-05      2.73306     -51.5366 
3.48135e-05     0.476760     -80.3401 
0.000199914     0.485077     -81.7028 
0.000155491     0.494975     -81.8699 
0.000250983     0.503587     -83.1572 
0.000141529      2.76116     -51.4698 
5.36075e-05      2.82418     -52.4809 
0.000324454     0.512445     -84.4007 
7.85740e-05      2.75494     -51.6325 
0.000124525      2.83212     -52.6041 
0.000667413     0.280713     -85.9144 
4.89134e-05      2.74875     -51.7959 
0.000116618      2.60271     -70.9385 
2.37080e-05      2.74089     -51.6667 
2.36314e-05      1.21807     -77.6753 
6.89905e-05      2.82606     -52.7652 
8.90694e-05     0.522398     -84.5077 
0.000110396      2.60599     -70.7307 
0.000165225      2.60931     -70.5234 
0.000183043     0.513517     -83.2902 
4.22141e-05      1.30292     -72.1213 
0.000119796      1.30602     -71.7038 
5.96274e-05      1.20221     -78.9705 
7.77307e-05      2.61266     -70.3167 
1.91333e-05     0.504876     -82.0304 
-0.00192867     0.549181      146.889 
-0.000474044     0.184391      130.601 
-0.000563306      1.59214     -26.0822 
0.00225928     0.852878      4.70785 
0.00257832     0.559732     -161.241 
-0.000431711      4.55027    -0.629599 
-0.00131819     0.191050      132.879 
-0.000745027      1.58316     -26.2414 
0.00140033      2.31035     -179.008 
0.00265370      4.87052     -3.76712 
-0.00108811      6.81859     -38.4498 
-0.000946882      4.48786     -5.11352 
-0.000676586      1.56732     -12.5288 
0.000754704      2.95743     -11.3099 
0.00254837      5.46937     -33.5157 
-0.00332323      5.63799     -136.653 
-0.000439982      1.65003     0.347242 
0.00149388      5.96611     -2.59384 
-0.000873121     0.866833     -11.3099 
-0.000419880     0.557584      147.450 
-0.000568764      1.56975     -26.8915 
0.00162362      3.05655     -3.75173 
-0.000740453      1.83134      177.809 
-0.00250060      4.46885     -5.26408 
-0.00276214      4.47881     -5.25234 
-0.000537452      4.86039     -121.368 
-0.000413880      6.08896     -30.0600 
-0.000592647      3.82498     -103.455 
0.000865454      5.58151     -1.33461 
0.000756324      2.96724     -11.2721 
-0.000500402      1.66003     0.345150 
0.00102398      3.47639     -47.9148 
-0.000903808      5.43136      30.9095 
-0.000323955      1.55653     -27.5528 
-0.00154131      6.08533     -30.1887 
0.000548551      8.00900     -41.9128 
0.00153629      5.46133      18.1364 
-0.000787842      3.82267     -103.309 
0.000186322      5.06558     -29.7028 
-0.000635974      6.81076     -38.5021 
-0.000793514     0.191050      137.121 
-0.000183766      1.55235     -28.0508 
0.000506235      3.20025    -0.716161 
-0.00104533      1.55756     -12.6086 
-0.000402006      4.85519     -121.267 
-0.000291259     0.569386      149.381 
0.00107681      5.07427     -29.6468 
0.00153350      7.86975     -47.3688 
-0.00102419      1.84133      177.821 
-0.000118018      1.53951     -28.7293 
0.000729884      3.88805      176.313 
-0.000171632      2.64705     -6.50751 
0.000668436      4.61850      30.7297 
-5.78908e-05      1.54434     -29.0546 
-0.000113832      1.54052     -29.5604 
0.00166478     0.547083     -161.896 
-0.000379651     0.679559     -122.989 
-0.000517720      3.50203     -149.261 
0.000729358      8.02312     -41.9182 
-0.000219565      1.54185     -30.3902 
0.000264478      2.97511     -11.0456 
-0.000159559      6.05799     -29.3578 
0.000413616      6.45901     -70.2746 
-0.000106623     0.578014      149.886 
0.00181943      3.56665     -118.649 
-0.00136859      3.93127     -1.45759 
-0.00106365      6.07668     -30.2361 
0.000550701      3.79697     -86.5272 
-0.000411555      1.54693     -30.7097 
0.000524699      5.01758     -47.3422 
-0.000789328      5.43994      30.8554 
-0.000581054      3.94221     -57.6403 
-0.000288800      5.54304     -3.93096 
0.000399586      3.46970     -48.0373 
-0.00140817     0.674166     -122.276 
0.000405400      4.06177     -42.8051 
0.00175632      4.27855     -22.2490 
0.00120977      4.62361      30.8362 
-0.00156679      3.70390     -104.862 
-0.000879654      1.25256      176.338 
5.14960e-05      5.00625     -50.2677 
-5.11818e-05     0.590593      151.699 
-0.000427997      3.50224      64.4593 
5.07115e-05      3.34054     -178.971 
-0.000453627      6.05310     -29.2753 
0.00211256      6.11118      1.12514 
-0.000100015      3.70135     -104.712 
0.000652602     0.750067      89.2361 
-0.000194278     0.599416      152.152 
-4.95973e-05      4.85001     -121.166 
0.00102694      1.82800      36.9953 
0.000232037      7.99212     -49.9741 
0.000527424      4.85990     -93.6572 
-0.000333057      1.55206     -31.0271 
4.85689e-05      2.31054     -178.760 
0.000316489      4.31928     -131.997 
0.000601808      4.86055     -3.77487 
0.000136805      6.70119     -117.942 
0.000361027      3.06653     -3.73950 
0.000321003      6.45564     -70.3581 
0.000579222      1.12147     -171.798 
-9.51523e-05      2.05205     -171.593 
0.000268696      5.95658     -2.69428 
-0.000767750      5.33769     -61.7065 
-0.000635638      3.49344     -149.177 
0.000117388     0.263059      8.74615 
0.000520287      5.80432      35.2508 
0.00175704      2.02277      165.689 
-9.23413e-05      2.06194     -171.634 
4.64069e-05      3.29006     -89.6517 
0.000987085      4.87247      20.2945 
-0.00274407      3.92841     -57.6854 
-0.000340548      4.67068     0.981416 
9.16073e-05      3.43402      47.9508 
0.000428482      3.79759     -86.3766 
-0.000477522      5.64300      134.426 
0.00110602      3.29014     -89.4776 
-0.000133157     0.612699      153.853 
-0.000309661      1.56064     -30.8378 
0.000850922      3.40695     -12.2005 
0.000687808      7.28506     -47.8374 
0.000527594      3.87807      176.304 
0.000131414      3.46302     -48.1604 
-0.000133679      2.06342     -171.359 
4.50660e-05      2.01308      165.619 
-0.000406171      5.33295     -61.8011 
-0.000213894      1.71003     -89.6649 
0.000423475      3.42733      48.0749 
8.82951e-05      5.08296     -29.5911 
0.00133023      4.12801      111.905 
0.000444666      3.68213     -65.1053 
8.67605e-05      4.85127     -45.8352 
0.00581682      4.62433      152.992 
-0.000808349      2.79358     -124.942 
-0.000481710      2.07331     -171.401 
-0.000536321      1.54311      47.6264 
0.000957325     0.750267      88.4725 
-0.000282810      3.78747      140.679 
0.000555883      3.23818     -75.1484 
-0.000703931      2.02714     -151.412 
0.000572078      4.43298     -62.1632 
0.000343526      6.45229     -70.4417 
-0.000367326      1.56579     -31.1520 
-8.35942e-05      3.49794      64.6071 
-8.17221e-05     0.876641     -11.1818 
0.000564872      4.85824     -45.7506 
-0.000689486      2.31821      97.1863 
4.23695e-05      5.07803     -29.4930 
-4.23148e-05      5.07666     -76.6755 
-0.000199647     0.621691      154.259 
-0.000239111      2.03593     -151.547 
0.000820075      6.80883      28.0329 
0.000218833      2.33317     -35.0524 
-0.00162562      2.18662      144.493 
-0.000319204      7.04611     -57.4602 
0.000119234      7.98569     -50.0291 
-0.000153818     0.183848      135.000 
-4.16150e-05      6.00748     -25.3280 
-8.25145e-05      5.08639     -76.7014 
0.000159990      4.19949     -152.947 
-0.000121727      4.27730      34.6189 
0.000159502      3.07587     -3.54148 
0.00163239      6.57012     -46.0484 
0.000484362      8.01645     -41.8650 
0.000904307      7.56651     -52.4637 
-0.000413493      6.01225     -25.2011 
-0.00102904     0.380132     -35.3625 
-0.000235555      4.86121     -73.8765 
0.000120641      4.79914      27.4194 
-7.85143e-05      3.88013     -56.3509 
-0.000157752      3.91900     -136.654 
4.02256e-05      5.37331     -58.4693 
7.76752e-05      4.32598     -132.096 
0.000587220      4.33232      71.5651 
3.99417e-05      3.86395     -153.236 
-0.00227505      1.55724      47.6026 
0.000713647      3.42066      48.1995 
0.000736629      7.80830     -46.2454 
0.000378650      1.82003      37.1847 
0.000419962      5.46103     -33.5737 
-3.94363e-05      5.09613     -76.7273 
0.000591413      3.42913     -122.253 
-0.000396595      1.55003     -13.0500 
0.000227395      4.80801      27.3645 
0.000216219      1.13137     -171.870 
-0.000327971      4.28553      34.5430 
-0.000217812      3.49847      64.9732 
-0.000967969      1.57436     -30.9638 
-0.000606628      5.64526     -136.723 
0.000109704      5.08674     -29.4375 
7.53387e-05      6.69651     -117.866 
-7.59416e-05      4.65242     -54.9777 
0.000506090      2.32499     -35.1939 
-0.000331642     0.668880     -121.551 
0.000511788      2.86923      11.6624 
-0.000412279      4.66069     0.983521 
0.00115392      5.99608     -17.7702 
0.000349199      3.08585     -3.53001 
