! Center RA: 11 04 27.31394,  Dec: +38 12 31.79903 (2000.0)
! Established model.
! Flux (Jy) Radius (mas)  Theta (deg)  Major (mas)  Axial ratio   Phi (deg) T \
! Freq (Hz)     SpecIndex
 0.0881074      1.41421     -45.0000 
 0.0266562      1.40014     -45.5787 
 0.0215877      1.38593     -45.0000 
0.000380302      1.40014     -44.4213 
0.00553101      1.43010     -42.1659 
0.00138817      1.38622     -46.1691 
0.00100561      1.37244     -46.7715 
0.000722259      1.45671     -45.5563 
0.00119956      1.35882     -47.3859 
0.000365352      1.48499     -44.4543 
0.00297409      2.07894     -44.6102 
0.00272535      1.40585     -39.8056 
0.00308203      2.50200     -34.5793 
0.00216684      3.55218     -37.4506 
0.00454446      1.47105     -46.1017 
0.000959874      2.51849     -34.3211 
0.00249306      2.52982     -34.6952 
0.000878334      1.95489     -41.6822 
0.000564500      2.91548     -42.7760 
0.00344242      2.93019     -42.5104 
0.000153105      1.88733     -40.2720 
0.000526097      1.90263     -39.8827 
0.00180856      1.39054     -40.3331 
0.00251182      3.53633     -37.6476 
0.00118909      1.88043     -38.0888 
0.00104060      2.06495     -44.2152 
0.000313272      1.96987     -41.2954 
0.000464927      2.09323     -44.2258 
0.000179472      1.98494     -40.9144 
0.000812123      1.89621     -37.7160 
0.000334569      2.00010     -40.5392 
0.000132694      2.01534     -40.1696 
0.000415423      2.90193     -42.4862 
1.41848e-05      1.94000     -42.0750 
0.000329831      2.02830     -40.6013 
0.000121307      1.41873     -40.4261 
1.25847e-05      1.92520     -42.4739 
0.000214684      1.99409     -44.5937 
8.83116e-05      2.56827     -33.5663 
0.00213412      1.44941     -39.4007 
0.00216373      2.61457     -39.4128 
0.00120136      2.51746     -45.6437 
0.00315603      2.53148     -45.3201 
0.000303455      2.91671     -42.2208 
0.00118552      2.14979     -44.2462 
0.00244051      2.93155     -41.9582 
0.00180191      2.12151     -44.2361 
0.000874216      2.59915     -39.6927 
0.000146923      1.66193     -39.6290 
0.00161943      2.95980     -41.9872 
0.000757261      2.57099     -39.6344 
0.00123027      1.67738     -39.1933 
0.000377401      2.13551     -44.6206 
0.000425966      2.50320     -45.3237 
0.000463582      1.45245     -38.2902 
0.000792081      1.43680     -38.7844 
0.000142753      2.46089     -45.6585 
0.00133827      2.05883     -39.8768 
0.00101644      3.01231     -44.7310 
0.000593639      2.08701     -39.9462 
0.000804751      2.99813     -45.0000 
0.000116944      2.01316     -40.9717 
0.00175008      1.46492     -38.9041 
0.000729209      2.40433     -45.6740 
0.000171521      2.48918     -45.6511 
0.000560155      1.63377     -39.5362 
0.000784277      2.13588     -43.8618 
0.000965119      2.96998     -45.5457 
0.000455938      3.04059     -44.7335 
0.000881894      2.95601     -45.8224 
0.000353339      3.08312     -44.4744 
0.000471300      1.60312     -40.4462 
0.000672016      2.04137     -41.0275 
0.000337558      1.96825     -42.1170 
0.000943657      1.61617     -40.9858 
0.00122799      3.09742     -44.2152 
0.000700471      2.94211     -46.1017 
4.19463e-05      1.95346     -42.5104 
2.03940e-05      2.92828     -46.3837 
0.000113259      3.12570     -44.2223 
9.39543e-05      2.90000     -46.3972 
0.000183510      2.56070     -43.4176 
3.88340e-05      2.53180     -44.0398 
0.000143123      2.57527     -43.1118 
0.000141882      2.51746     -44.3563 
0.000230877      2.58990     -42.8094 
0.000297032      2.50320     -44.6763 
0.000548191      1.58619     -41.9335 
0.000154717      2.60461     -42.5104 
0.000154272      2.48902     -45.0000 
6.16694e-05      3.02642     -45.0000 
2.02056e-05      1.51327     -45.5355 
-0.000887951      2.92773     -44.1697 
-0.00401200      2.46812     -37.4271 
-0.000826808      2.88513     -44.4383 
-0.000206859      3.05680     -42.8789 
-0.00158741      2.43656     -48.3274 
-0.000526137      3.07148     -42.6250 
0.000948824      2.60354     -43.1323 
-0.000636223      1.91802     -39.4996 
-0.00165553      2.87089     -44.7178 
0.000965731      3.41204     -37.1386 
-0.000856667      3.08623     -42.3736 
-0.00162091      2.13925     -41.5891 
-4.96243e-05      2.84260     -44.7149 
-0.000189246      2.82843     -45.0000 
-0.000180438      1.84629     -39.7261 
-9.19297e-05      1.96163     -39.2072 
0.00154343      2.55891     -31.5782 
-4.54143e-05      2.80014     -45.0000 
-0.000577623      2.77186     -45.0000 
-0.000170158      1.97717     -38.8408 
8.58410e-05      1.88138     -43.7078 
8.30572e-05      2.58898     -43.4349 
0.000836124      1.92416     -43.3153 
-0.000177829      1.83096     -40.1261 
-0.00145990      2.03657     -38.2204 
0.000462508      2.60277     -43.7546 
0.000608388      1.89589     -43.2902 
-0.000109158      1.81813     -39.6442 
0.000601052      2.36178     -45.3431 
-0.000749054      3.63280     -38.0686 
-0.000509538      1.80278     -40.0497 
-0.00116827      1.58051     -38.3201 
-0.000187720      2.92438     -40.0063 
-0.000185198      1.88096     -35.0419 
-0.000263781      3.01144     -39.6107 
-0.000446234      2.03666     -45.7957 
0.000974250      2.64877     -38.2544 
0.000425399      2.58836     -44.0608 
-0.000253944      3.10103     -42.1245 
0.000367750      3.42800     -36.9368 
-0.000651119      2.73766     -40.5559 
5.64514e-05      1.39313     -39.1737 
4.17116e-05      1.38058     -38.5302 
0.000630254      1.40869     -38.6598 
-0.000273266      2.75775     -44.7062 
-0.000360425      2.45153     -48.6382 
0.000390515      2.31948     -45.6987 
0.000108741      1.59862     -43.4792 
-0.000130067      1.89737     -34.6952 
0.000440311      1.93876     -42.9098 
-0.000232238      3.11589     -41.8779 
0.000365341      1.58493     -42.9546 
0.000406733      2.57387     -45.0000 
-0.000229508      3.02688     -39.3693 
-0.000218918      2.12603     -41.1859 
-8.77987e-05      1.78751     -40.4622 
-0.000116129      2.45601     -37.0565 
0.000106213      1.42436     -38.1572 
3.81955e-05      1.91050     -42.8789 
0.00115284      4.99376     -40.4520 
0.000704059      4.98080     -40.2769 
0.00165393      4.96556     -40.4261 
-0.000754199      2.72720     -39.6442 
-0.00112640      2.74263     -39.3776 
-0.000578729      2.92000     -48.8879 
-0.00142686      2.05066     -45.3951 
0.00179188      3.36809     -37.2782 
-0.000117336      1.63218     -36.0274 
-0.000379591      1.72534     -34.6111 
-0.000496308      2.71448     -39.3191 
-7.00840e-05      2.80528     -48.4682 
-0.000132460      1.61604     -36.4444 
6.80975e-05      5.09356     -40.3817 
-0.000131852      2.94822     -48.8506 
-0.000756688      1.71406     -34.0609 
-5.02658e-05      2.79034     -48.1959 
0.000475286      5.10654     -40.5526 
-0.000569358      2.93510     -49.1446 
-0.000201980      2.77705     -48.5035 
0.000787936      4.93737     -40.3999 
0.000520411      3.39612     -37.3423 
-0.000341447      2.91328     -45.0000 
-0.000408723      2.09609     -41.9059 
-0.000151367      1.60000     -36.8699 
0.000406943      4.92443     -40.2227 
-0.000265597      2.74722     -42.0492 
-2.43709e-05      2.76210     -48.2286 
0.000997058      5.11945     -38.9744 
-0.000135666      2.74882     -48.5396 
0.00183726      4.90918     -40.3734 
-0.000219514      1.70294     -33.5034 
4.35896e-05      5.13474     -40.5771 
-0.000597837      3.38053     -35.8529 
-4.95572e-05      2.06495     -45.7848 
0.000131362      2.85524     -39.6000 
-0.000161367      3.34527     -38.4458 
3.77454e-05      2.84253     -39.2894 
2.68957e-05      1.95161     -45.0000 
-0.00124871      3.02853     -42.8591 
-2.68367e-05      2.97039     -43.9088 
-4.94618e-05      2.95601     -44.1776 
-0.000756921      3.01390     -46.8823 
0.000181145      4.95262     -40.2499 
-8.99111e-05      2.94170     -44.4491 
-0.00100223      2.49046     -46.9525 
0.000220785      3.35219     -37.4852 
-0.000128528      2.92746     -44.7232 
0.00106343      2.39006     -44.6610 
-0.000370413      2.53338     -42.7605 
0.000418500      1.48661     -47.7263 
0.000435338      2.62937     -33.2066 
0.000351292      3.38024     -37.5479 
-0.000619004      2.51984     -42.4266 
-0.000624179      3.43919     -39.3363 
-0.000286408      2.02356     -42.9975 
-8.41844e-06      2.95574     -44.7259 
0.000122447      3.40828     -37.6096 
-0.000164478      3.46883     -35.6145 
0.000198635      3.43634     -37.6703 
-0.000111767      3.58022     -37.5100 
3.02289e-05      3.46439     -37.7299 
0.00254480      7.22897     -39.7244 
0.00172507      7.24436     -39.6233 
0.000775850      7.00791     -42.3397 
0.000664758      7.25713     -39.7449 
0.00152203      6.99445     -42.2186 
6.33040e-05      7.40384     -40.6181 
0.000214398      7.41903     -40.5175 
-0.00155924      7.30274     -38.4393 
0.000454287      7.43204     -40.6347 
0.000291853      7.25978     -39.5226 
0.000104613      7.27522     -39.4224 
0.000761059      7.26253     -39.3005 
-0.000684395      7.11632     -39.6406 
-5.60752e-05      7.06116     -40.8653 
6.58075e-05      7.41687     -40.7354 
0.000365145      7.23439     -39.2783 
-1.96761e-05      7.20702     -42.1881 
-3.48599e-05      7.41598     -39.5286 
0.00153294      5.23041     -48.8759 
0.000360560      5.24359     -48.7113 
0.000882156      7.09707     -41.6872 
0.000245731      5.55168     -39.8849 
0.000576082      7.44723     -40.5345 
0.000641060      7.21620     -39.6023 
4.69861e-05      5.28186     -47.9160 
0.000237359      5.21935     -49.3511 
4.26954e-05      5.29528     -47.7554 
0.000124299      5.54923     -40.1757 
3.48460e-05      5.29400     -47.4497 
8.77982e-05      7.08378     -41.5664 
-0.000450341      6.96566     -40.4585 
-0.000554379      5.72325     -39.7543 
-0.000906944      7.24334     -38.6104 
-0.000488358      7.26353     -42.2100 
0.000399965      5.56453     -40.0429 
-0.000433985      5.08571     -48.3477 
8.39485e-05      7.23162     -39.5012 
0.000131678      7.20347     -39.4797 
-0.000168310      5.39633     -48.1548 
0.000109361      5.26847     -48.0775 
4.11775e-05      7.46024     -40.6513 
3.75287e-05      5.57742     -40.2002 
5.62572e-05      7.21892     -39.3788 
9.29899e-06      5.25513     -48.2397 
0.00186719      2.13054     -50.3322 
0.00182207      3.98246     -38.8845 
0.000819636      4.31041     -38.7844 
0.000204837      2.11783     -50.7487 
0.000328280      5.16949     -38.2444 
6.26262e-05      2.13335     -51.0885 
0.000499207      4.32296     -38.9910 
0.000182836      5.18521     -38.1076 
0.000868170      2.49736     -31.9081 
0.000127891      2.12085     -51.5090 
0.000964269      5.17289     -37.9333 
0.000169384      4.89396     -40.5251 
2.46114e-05      4.87672     -41.0091 
4.72404e-05      4.86165     -41.1638 
0.000200184      4.89624     -40.1951 
0.000309374      4.30744     -39.1584 
1.14484e-05      4.84661     -41.3194 
0.000106983      4.85984     -41.4965 
0.000367073      3.99805     -38.7046 
0.000211277      2.09619     -52.3647 
0.000119096      4.84487     -41.6532 
6.11101e-05      5.05490     -39.8636 
0.000261433      4.89869     -39.8655 
6.04678e-05      4.81664     -41.6335 
0.000289584      4.27387     -39.8742 
0.000107753      5.03956     -40.0094 
0.000397623      4.82995     -41.8109 
0.000299815      2.11206     -52.6961 
6.83955e-05      2.14336     -49.9206 
0.000203466      2.16601     -47.6195 
0.000226797      4.88336     -40.0159 
9.73868e-05      5.16062     -37.7581 
0.000385271      4.25854     -40.0467 
0.000179749      5.05245     -40.1831 
0.000168836      4.33853     -38.8248 
0.000279237      5.14840     -37.5822 
0.000429608      2.51436     -31.6672 
7.46688e-05      4.32601     -38.6184 
-0.000429749      4.02040     -39.5501 
-0.000321141      2.59700     -32.0989 
-0.000177141      5.23496     -38.7966 
6.28754e-05      5.06774     -40.0372 
-4.22314e-05      5.03817     -38.5532 
0.000148343      4.02616     -38.7487 
0.000107123      5.11656     -39.2894 
-0.000130114      5.05066     -38.7307 
-1.29034e-05      4.87015     -42.3370 
0.000260504      5.44783     -46.9339 
0.000410294      5.43419     -47.0880 
0.00229017      5.22157     -49.6605 
0.000209624      5.43323     -46.7899 
0.000700118      5.44694     -46.6366 
0.000168638      4.27649     -39.4968 
0.000226376      4.28924     -39.7030 
0.000163392      2.27798     -43.2212 
0.000138420      5.20450     -37.6626 
0.00107807      5.10819     -37.3634 
0.000496954      2.30625     -43.2430 
0.000404443      5.20096     -37.9716 
8.10827e-05      4.35109     -39.0300 
0.000234961      5.40829     -47.6978 
0.000146200      4.36665     -38.8647 
0.00107237      5.44621     -46.3391 
0.000432039      5.39485     -47.8549 
0.000191760      2.29172     -43.5856 
0.000532582      4.38224     -38.7006 
0.000214897      4.24325     -40.2205 
0.000161383      5.21674     -37.8365 
7.09006e-05      2.32000     -43.6028 
3.37729e-05      2.33692     -41.8779 
7.21540e-05      2.33384     -43.9584 
0.000222574      2.35185     -41.5526 
5.60880e-05      2.26292     -44.2838 
0.000487268      5.26426     -37.4359 
0.000194185      2.31948     -44.3013 
0.000333869      4.22800     -40.3955 
0.000272950      2.36685     -41.2315 
3.45804e-05      2.34777     -44.3097 
9.63042e-05      2.27693     -44.6441 
0.000134537      2.33350     -44.6528 
0.000370691      5.09133     -38.9410 
-0.000501405      5.06952     -38.2715 
4.48296e-05      2.29103     -45.0000 
8.23037e-05      5.09231     -37.5000 
2.93595e-05      5.07646     -37.6374 
0.000204195      5.02908     -38.0548 
-0.00184792      2.35032     -47.7591 
-0.000568310      2.64643     -42.8562 
-0.000181752      2.63287     -42.5372 
0.000534759      4.36976     -38.4960 
8.12772e-05      4.35412     -38.6598 
8.43961e-06      2.61664     -45.9290 
0.00125802      2.60231     -45.6228 
0.000708441      4.23292     -39.6323 
-0.000643153      2.57946     -41.2277 
-0.000133412      2.66008     -43.1720 
-0.000174148      2.27728     -46.0675 
-0.000224787      2.67380     -43.4846 
0.000532394      2.36516     -41.9152 
0.000352419      2.43245     -45.0000 
-0.000728049      2.70148     -44.1001 
-0.000358335      2.26292     -45.7162 
0.000147804      2.41835     -44.6649 
-0.000344175      4.31741     -39.7376 
-0.000145867      2.56632     -40.8919 
0.000271440      2.40416     -45.0000 
-0.000231050      4.33281     -39.5685 
-9.81160e-05      2.24864     -45.3603 
0.000425036      6.34810     -36.5450 
0.000612573      6.33205     -36.6527 
0.000269562      6.35232     -36.2926 
0.000655535      6.36113     -35.7890 
5.32648e-05      6.37737     -35.6839 
5.15192e-05      6.36572     -35.5377 
0.00113788      6.32800     -36.9061 
0.000213987      6.38201     -35.4333 
0.000386257      6.31202     -37.0151 
0.000200874      6.37043     -35.2867 
0.000684472      6.38677     -35.1831 
0.00126095      6.30815     -37.2695 
0.000303913      6.37526     -35.0362 
0.000256292      6.39165     -34.9333 
0.000113114      6.40312     -35.0800 
-0.00122962      6.18909     -35.7960 
5.61174e-05      6.35890     -35.1397 
-0.000876537      6.52435     -36.2727 
7.21136e-05      6.37285     -35.9348 
0.000484556      6.31956     -34.9475 
0.000283144      6.36845     -36.1861 
0.000247448      6.30317     -35.0516 
7.86113e-05      6.36418     -36.4378 
0.000387138      6.38028     -36.3311 
0.000295103      6.28681     -35.1563 
1.65951e-05      6.39641     -36.2249 
1.19780e-05      6.27047     -35.2615 
3.19695e-05      6.35667     -36.0406 
3.11118e-05      6.35412     -35.3909 
8.77744e-05      6.34255     -35.2436 
0.000212625      6.33103     -35.0958 
0.000404739      6.28029     -34.7529 
2.31031e-05      6.40528     -35.7248 
3.01929e-05      6.40990     -35.4753 
3.35258e-05      6.42620     -35.3718 
0.000112363      6.44251     -35.2689 
1.64391e-05      6.34003     -37.0506 
-0.000413553      6.22158     -35.5805 
-0.000281331      6.51254     -36.1309 
1.20851e-05      6.45408     -35.4138 
1.62336e-05      6.43779     -35.5170 
1.44388e-05      6.43320     -35.7655 
0.000240279      6.41698     -35.8698 
0.000454168      6.26386     -34.8571 
-0.000217254      6.36270     -34.2395 
-0.000153909      6.20996     -35.4304 
-0.00125024      2.92027     -156.595 
-0.000884925      2.93864     -156.750 
0.00228400      1.03479     -131.082 
-0.000649378      2.93080     -157.109 
-0.00126244      2.53779     -6.78897 
0.000793888      3.71171     -12.7632 
0.000588028      1.24065      159.228 
-0.000282676      2.91239     -156.956 
0.000696254      4.90245     -72.6739 
-0.000449495      3.74433     -109.016 
-0.000367905      2.55766     -6.73601 
0.000406137      9.00855     -44.9101 
-0.000548173      5.61288     -106.562 
-0.000160523      1.81339      6.96825 
0.00178660      3.69221     -12.8318 
0.000195654      6.61722      10.8005 
0.00102326      1.78617      124.046 
-0.000229307      1.48862      96.1702 
-0.000933651      8.61201     -53.0237 
-0.000421664      4.00764      21.0580 
-0.000385278      1.79354      7.04577 
-0.000386204      2.85608     -158.646 
-0.00105089      4.56640     -49.2626 
0.000415511      9.02268     -45.0000 
-0.000143989      5.59371     -106.621 
0.000345153      1.25936      159.550 
-0.000755432      3.73786     -108.726 
0.000244512      6.62100      10.9705 
-0.000143247      1.50851      96.0885 
3.64536e-05      5.06063      23.5257 
-0.000360474      6.69510     -8.59001 
0.000326754      3.91203      37.1042 
0.000575260      2.08087      72.0875 
0.00119406      6.56905     -59.8440 
0.000608908      5.05035     -103.046 
-0.000172207      2.04793      84.9575 
0.000385073      4.01138      9.18054 
-3.45914e-05      2.88361     -156.280 
-0.000101377      2.86531     -156.119 
-0.000428047      1.51076      96.8428 
0.000644931      1.77200     -110.480 
-0.000358191      3.56034     -30.7430 
-0.000991597      2.06785      85.0063 
-9.72981e-05      2.84703     -155.956 
0.000549462      4.89653     -72.8973 
-0.000945926      4.89820     -33.1710 
-0.000204390      2.22612      171.215 
3.25187e-05      5.05035      23.8243 
0.000826216      5.71150     -17.7370 
-0.000980084      3.54316     -30.9083 
0.000884113      2.64462     -67.3135 
0.000153234      6.62483      11.1403 
9.51364e-05      4.57086     -8.55556 
0.000416807      1.04805     -131.906 
-9.36615e-05      5.80789     -105.376 
-0.000122917      2.96493     -156.548 
-0.000367906      5.60721     -106.366 
-6.22851e-05      2.83704     -155.422 
0.000752018      3.96989      40.9144 
0.000647675      4.59365     -8.76513 
0.000147368      4.77213     -113.987 
0.000175999      1.26649      158.703 
-3.04203e-05      4.02631      20.9558 
0.000258463      3.23883     -117.989 
0.000480828      6.57736     -21.9632 
0.000167848      6.29946     -71.1049 
-0.000263116      2.81887     -155.253 
-3.02658e-05      5.80262     -105.186 
3.01879e-05      4.57056     -116.789 
-0.000331081      7.10228     -60.4753 
-8.81045e-05      4.05216      21.1187 
0.000562838      8.37695     -57.1826 
-0.000144839      5.77810     -105.046 
-2.97909e-05      7.98599     -42.1579 
0.000457333      7.59876     -67.8906 
8.74002e-05      4.57961     -117.013 
-0.000399169      7.99943     -42.2641 
-2.93928e-05      3.85253     -35.9180 
-0.000109941      4.88729     -32.9747 
-0.000369417      6.68960     -44.3944 
-0.000275579      3.86430     -36.1582 
0.000134105      5.95278     -76.9910 
-0.000609275      6.76500     -2.20260 
5.68145e-05      6.60912      11.3439 
0.000159065      4.02800      8.85431 
-5.64612e-05      2.98329     -156.701 
-0.000478257      5.06675     -42.7605 
-0.000302781      4.30116      38.2021 
-0.000150105      8.01424     -42.1679 
-2.82075e-05      5.88320     -70.3331 
-2.81961e-05      4.30460      37.8283 
0.000241866      4.56180     -117.127 
0.000498917      1.77505      123.511 
-0.000747797      5.90877     -70.2157 
