! Center RA: 11 59 31.83391,  Dec: +29 14 43.82678 (2000.0)
! Established model.
! Flux (Jy) Radius (mas)  Theta (deg)  Major (mas)  Axial ratio   Phi (deg) T \
! Freq (Hz)     SpecIndex
  0.350197      0.00000      0.00000 
  0.229189    0.0100000     -90.0000 
  0.114174   0.00999997      180.000 
 0.0121722    0.0141422     -44.9998 
0.00162566    0.0223606      153.435 
0.000813277    0.0282843     -45.0000 
0.000798395    0.0424264     -45.0000 
0.00997713    0.0360555      146.310 
 0.0105044    0.0500000     -36.8699 
 0.0114288    0.0447213      153.435 
 0.0363262    0.0583095     -30.9637 
 0.0342178    0.0538516      158.199 
0.00902957     0.420000      0.00000 
0.00687022     0.430116     -1.33222 
0.000275035     0.410122      1.39718 
0.00153764     0.450444     -2.54480 
0.00265520     0.400125      1.43210 
0.00158890     0.460977     -3.73140 
0.00159919     0.390128      1.46880 
0.00995929     0.470956     -3.65222 
0.00993851     0.380132      1.50744 
 0.0104334     0.276586      12.5288 
0.00349800     0.564624      22.9321 
0.00464967     0.650692     -2.64255 
0.000670189     0.560803      21.9911 
0.000557422     0.721249      16.9275 
0.00174609     0.730821      16.6992 
0.00208562     0.551543      22.3801 
0.00111472     0.740405      16.4769 
0.00544919     0.660681     -2.60256 
0.000225307     0.538517      21.8014 
0.00537187     0.266833      12.9946 
0.000216833     0.534883      20.8068 
0.00171378     0.752861      16.9908 
0.00307306     0.531413      19.7989 
0.000255351     0.555428      23.3340 
0.000564681     0.762430      16.7712 
0.00605228     0.765376      17.4880 
0.000735664     0.559464      24.2744 
0.000713368     0.522015      20.1707 
0.000146876     0.725328      15.1858 
0.000205902     0.713092      14.6209 
0.000135540     0.671193     -3.41659 
0.00856600     0.254951      11.3099 
0.00114649     0.651230     -3.52145 
0.000555138     0.755844      17.7158 
0.00378314     0.449444     -20.8545 
0.000169944     0.213776      10.7843 
0.00626517     0.215870      13.3925 
0.00440314     0.453100     -22.0362 
0.000667063     0.376431     -16.9908 
0.000478060     0.466155     -22.7144 
0.00241452      1.50030      1.14576 
0.00318968     0.197231      149.534 
0.00247380      1.02108      14.1723 
0.000335754      1.35359     -17.6318 
0.00249816      1.34406     -17.7609 
0.00139204     0.186815      15.5241 
0.00164343      1.24065      1.84761 
0.00281351      1.51030      1.13818 
0.00262582     0.463249      13.7363 
0.00685711     0.790759     -13.1575 
0.000737201     0.388973     -17.9691 
0.00146212     0.170880      20.5560 
0.00237328      1.23037      1.39718 
0.000711105     0.205913      150.945 
0.000989990      1.03078      14.0362 
0.00121208      1.03325      14.5742 
0.00183279      1.34715     -18.1660 
0.000760320     0.121655      99.4623 
5.45054e-05     0.192354      152.103 
0.00190190     0.111803      100.305 
0.000188257     0.329848     -14.0362 
0.000669134     0.201246      153.435 
0.000302990     0.214709      152.241 
6.85025e-05     0.414367     -19.7468 
0.00117100     0.472969      13.4486 
0.00250497      1.22037      1.40863 
0.000226093     0.180278      19.4400 
0.000356858     0.427200     -20.5560 
0.000999750     0.317805     -12.7244 
0.00170597      1.04293      14.4360 
0.000533046     0.223607      153.435 
0.000506337     0.165529      25.0169 
0.00126953      1.52030      1.13069 
0.000300676     0.440114     -21.3179 
0.000100763     0.210238      154.654 
0.000227198     0.219317      155.772 
0.000374021      1.05262      14.3003 
0.000319564      1.33765     -18.2995 
0.000199580     0.800500     -12.9946 
0.000607217     0.901388      17.4299 
0.000608677     0.158114      145.305 
0.00122821     0.161245      150.255 
0.00205518     0.177200      16.3895 
0.000210545     0.184391      12.5288 
0.00113652     0.170000      151.928 
0.000989854     0.210000      0.00000 
0.00191352      1.22066      1.87788 
0.000951940     0.178885      153.435 
0.000757606     0.187883      154.799 
0.000479991      1.52013     0.753848 
0.00111099     0.156525      26.5650 
2.77584e-05      1.33240     -16.1226 
0.000406111      1.34104     -17.3540 
0.000971038     0.196977      156.038 
0.000900040     0.470744      12.2648 
0.000144416      1.33454     -17.8919 
0.000202319     0.206155      157.166 
1.02278e-05     0.793095     -13.8610 
0.000124105     0.144222      146.310 
4.10496e-05     0.104403      106.699 
0.000500758     0.101980      101.310 
0.000443264     0.152643      148.392 
0.000958309     0.200000      0.00000 
0.00370060     0.167631      17.3540 
0.000547227     0.161555      21.8014 
7.89664e-05     0.781025     -13.3245 
0.000496566     0.100499      95.7106 
0.00270999     0.819390      23.7495 
0.000243750     0.148661      160.346 
0.00110585     0.100000      90.0000 
0.000765647     0.145602      164.055 
0.000936147     0.210950     -5.44033 
0.000434339     0.100499      84.2894 
0.000689270     0.143178      167.905 
0.000220767     0.102956      60.9454 
0.00194723     0.141421      171.870 
0.00131288     0.108167      56.3099 
0.00318026     0.222036     -7.76516 
0.000163169     0.182483      9.46232 
0.000752634      1.00180     -3.43363 
8.91282e-05      1.01193     -18.4349 
0.000754458      1.00881     -17.8961 
0.000157590     0.192354      8.97262 
0.000496942     0.991817     -3.46823 
3.20679e-05     0.815414      23.1063 
0.000269252     0.233452     -9.86581 
0.000315904     0.810247      24.0343 
6.64573e-05     0.166433      147.265 
3.54797e-05     0.243311     -9.46232 
0.000168931     0.200998     -5.71059 
0.00160652     0.212132     -8.13010 
3.14929e-05    0.0921954      77.4712 
0.000615285     0.151327      172.405 
0.000612418     0.150333      176.186 
0.000487786     0.120416      41.6335 
6.09858e-05     0.128063      38.6598 
0.00133139    0.0984886      66.0375 
0.000531314    0.0948683      71.5651 
0.000203415     0.161245      172.875 
0.00160586     0.171172      173.290 
0.000285079     0.181108      173.660 
0.00196517     0.231948     -7.43141 
8.03669e-06     0.170294      176.634 
0.00118826    0.0943398      57.9946 
0.000978532    0.0894427      63.4349 
0.000395418    0.0854400      69.4440 
0.000151198    0.0824621      75.9637 
0.000988850     0.130384      175.601 
6.89763e-05    0.0905539      83.6598 
0.000765017    0.0900000      90.0000 
0.000630362     0.140357      175.914 
0.00144684     0.106301      48.8141 
0.00138306     0.100000      53.1301 
0.00359286    0.0905538      173.660 
0.000490248     0.113137      45.0000 
0.000994308     0.100499      174.289 
0.000371293    0.0921954      167.471 
1.13301e-05     0.143178      155.225 
0.000264464    0.0948683      161.565 
4.32563e-05    0.0984886      156.038 
0.000801504     0.708308      13.0552 
0.00105673     0.706116      12.2648 
0.000836677    0.0632456      71.5650 
0.000207935    0.0608276      80.5376 
0.000108675    0.0761577      66.8014 
4.28422e-05    0.0600000      90.0000 
2.09366e-05    0.0608276      99.4623 
0.00104331    0.0640312      128.660 
9.88833e-05    0.0806226      60.2551 
0.00122537     0.783390     -14.0362 
7.78066e-05     0.730548      19.1790 
0.000110479    0.0860233      54.4623 
0.00135816     0.733894      19.9164 
0.000102416    0.0921954      49.3987 
0.000403471     0.704060      11.4695 
0.000726699     0.108167      33.6901 
0.000878233     0.116619      30.9637 
0.000102223     0.702140      10.6698 
0.000295725     0.692315      10.8230 
0.000951917     0.125300      28.6105 
0.00106301     0.134164      26.5651 
0.000665965     0.690507      10.0080 
0.00316550     0.143178      24.7751 
0.00277183     0.795550     -14.5603 
0.00139720     0.680661      10.1543 
0.00461382    0.0565685      135.000 
0.000801672    0.0721111      56.3099 
0.000573153    0.0781025      50.1944 
0.000585454    0.0848528      45.0000 
0.000581890    0.0921955      40.6013 
0.000660151     0.100000      36.8699 
5.73935e-05     0.718053      12.8750 
0.000289565     0.781089      18.6669 
0.000118834     0.715891      12.0948 
0.000503201     0.771622      18.9046 
0.000598720      1.24036      1.38592 
0.000941321     0.809568      17.9873 
0.000109219     0.762168      19.1481 
0.000104420     0.752728      19.3978 
0.000569975      1.25064      1.83284 
6.37503e-05     0.743303      19.6538 
0.000541070    0.0670820      63.4349 
0.00305572    0.0538516      111.801 
0.00191640    0.0509902      101.310 
0.000111230    0.0640312      141.340 
0.00160678     0.266833     -12.9946 
0.000209919    0.0670820      153.435 
0.000224887    0.0761577      156.801 
0.000320776     0.276586     -12.5288 
0.000199032    0.0728011      164.055 
0.00104814     0.278927     -14.5345 
0.000402569    0.0824621      165.964 
0.000757241    0.0806225      172.875 
0.00237090    0.0900000      180.000 
0.00130661     0.161555      158.199 
0.000167682    0.0806225     -172.875 
0.000546777     0.165529      154.983 
0.000804195    0.0824621     -165.964 
0.000116783     0.288617     -14.0362 
0.000927273    0.0905538     -173.660 
0.00137464     0.257099     -13.4957 
0.000560039     0.158114      161.565 
0.000325924     0.100000      180.000 
0.000279043    0.0500000      90.0000 
0.000204720    0.0509902      78.6900 
0.000116728     0.120830      24.4439 
0.000283684     0.130000      22.6199 
0.00111158     0.139284      21.0375 
0.00324560    0.0500000      126.870 
0.000186519    0.0538517      68.1986 
0.000159325    0.0583095      59.0362 
3.06465e-05     0.102956      29.0546 
9.32611e-05     0.111803      26.5650 
0.00664649    0.0447213      116.565 
0.000174729    0.0640313      51.3402 
0.000446085    0.0799999      180.000 
0.00174023    0.0707107      45.0000 
3.20755e-05    0.0781025      39.8056 
2.32040e-05    0.0860233      35.5377 
3.04797e-05    0.0943398      32.0054 
0.000105223    0.0632456      161.565 
0.000292611    0.0707106      171.870 
0.000517263    0.0500000      143.130 
0.00170045    0.0424264      135.000 
1.15834e-05    0.0608276      170.538 
 0.0286998     0.318277      43.7270 
0.00166530     0.311127      45.0000 
0.00107363     0.318277      46.2730 
0.00372653     0.311448      47.6026 
0.000303160     0.349857      30.9638 
0.00112498     0.358469      30.1414 
0.000969744     0.306105      51.6325 
0.000617693     0.367151      29.3578 
0.000381120     0.302324      55.7843 
0.00507007    0.0360555      123.690 
0.00221733     0.420595      18.0042 
0.000852775    0.0761577     -66.8014 
0.00168750    0.0728011     -74.0546 
0.00101014    0.0583095      120.964 
0.000232961     0.430116      17.5924 
0.00354558    0.0316228      108.435 
0.00300754    0.0400000      180.000 
0.00129376    0.0400000      90.0000 
0.00629247    0.0282842      135.000 
0.000140581     0.427200      16.3139 
0.00141413    0.0412311      75.9637 
4.43620e-05     0.417612      16.6992 
0.000876653     0.705762      7.32641 
0.00138042    0.0583095     -149.036 
0.000465245     0.704557      6.51980 
0.000356809     0.714493      6.42875 
0.000739840    0.0640312     -141.340 
0.000332144     0.695845      7.43141 
0.000902756    0.0721110     -146.310 
0.000301856    0.0538516     -158.199 
7.11538e-05     0.694622      6.61346 
4.06993e-05     0.684690      6.70984 
0.00123897    0.0316228      161.565 
5.96799e-06    0.0412310     -165.964 
-0.00104729     0.353836      47.2906 
-0.000288112     0.367967      47.2026 
-4.47863e-05     0.284253      50.7106 
-0.000299206     0.374833      46.0809 
-0.000376225     0.264008      52.6960 
-0.000119736     0.381838      45.0000 
-0.000405739     0.250000      53.1301 
-0.000571299     0.395980      45.0000 
-0.000563069     0.244131      55.0080 
-0.000583236     0.403113      43.9949 
-0.000887678     0.230217      55.6196 
-0.000708366     0.410366      43.0251 
-0.00202293     0.224722      57.7244 
-0.000715721     0.417732      42.0892 
-0.000496931     0.425206      41.1859 
-3.07569e-05     0.336155      59.6209 
-0.000156212     0.432782      40.3141 
-0.000192529     0.331210      61.1134 
-0.000263030     0.326497      62.6501 
-5.00938e-05     0.440454      39.4725 
0.000837408     0.389487      29.1975 
-0.000204670     0.434166      38.4537 
-0.000422538     0.322025      64.2307 
-0.000143212     0.428019      37.4054 
-0.000129185     0.422019      36.3268 
-0.000295076     0.416173      35.2176 
0.000100695     0.453431      41.4237 
3.68665e-05     0.339706      47.3859 
-6.16384e-05     0.410488      34.0772 
0.00271325    0.0316228     -161.565 
0.000117163    0.0360555     -146.310 
0.000257254    0.0447213     -153.435 
0.00113606    0.0300000      180.000 
4.04112e-05    0.0424264     -135.000 
0.000105460    0.0500000     -126.870 
0.000174395    0.0583095     -120.964 
0.000265225    0.0670820     -116.565 
-0.00126937     0.326497      49.9697 
-0.000823353     0.318904      48.8141 
-4.40271e-05     0.333017      48.6522 
-1.36974e-05     0.346555      46.1691 
-1.35236e-05     0.353553      45.0000 
-2.65497e-05     0.360694      43.8767 
-3.86522e-05     0.367967      42.7974 
-4.94896e-05     0.375367      41.7603 
-9.25955e-05     0.382884      40.7636 
-0.00135836     0.219545      59.9314 
-9.46864e-05     0.390513      39.8056 
-1.04548e-05     0.330152      54.8658 
-5.68438e-05     0.332866      57.2648 
-0.000733720     0.398246      38.8845 
-5.54589e-05     0.327567      58.7363 
-5.69759e-05     0.404599      39.9869 
-5.53375e-05     0.331059      64.9831 
0.000686802     0.264008      65.3764 
-0.000138167     0.317805      65.8544 
0.000157791     0.410366      46.9749 
4.87830e-05     0.330152      35.1342 
2.06886e-05     0.338379      34.1597 
-0.000871493      1.54052      1.48787 
-0.000380028      1.54029      1.11601 
-0.000274164      1.54003    -0.372045 
-0.000217757      1.54081      1.85960 
-0.000435608      1.53003    -0.374477 
-0.000281471      1.54117      2.23117 
-0.000243109      1.54159      2.60256 
-0.000641521      1.55158      2.58579 
-0.000183409      1.52003    -0.376940 
-0.000100466      1.51003    -0.379437 
-6.04974e-05      1.50003    -0.381966 
-2.19624e-05      1.49003    -0.384530 
-0.000864677      1.46003    -0.392431 
-0.000141000      1.57003    -0.364936 
-0.000241048      1.56157      2.56924 
4.69766e-05      1.46055      1.56935 
0.000399131      1.47031      1.16914 
0.000164185      1.48030      1.16124 
0.000247002      1.50013     0.763898 
0.000385239      2.79508      153.435 
-0.00129016      4.84869     -60.7388 
0.00123437      2.79063      153.619 
-0.000438760      4.87312      71.8253 
0.000700692      3.08462      157.509 
0.000741276     0.773369      40.2799 
0.00137395      4.69915     -151.253 
0.000426862      5.36296      13.2589 
0.000454559      4.22928      38.2790 
-4.12932e-05      2.87628     -56.9177 
-0.000162183      4.88262      71.8619 
-0.000348572      2.87084     -57.0849 
0.000502542      2.70337     -141.307 
-0.000194803      3.74681      38.0627 
0.000401776      5.89042     -37.5508 
-0.000940008      4.88574      71.7505 
0.000261909      2.86142     -1.80242 
-7.29620e-05      2.21633      127.852 
-0.000474419      5.98453      35.2038 
-0.000685300      3.74513      38.2775 
-0.000428174      2.23036      127.898 
7.49971e-05      2.69713     -141.473 
-0.000291245      1.65774     -95.5386 
-0.000111353      3.81058      78.9555 
0.000800341      3.88021      179.409 
0.000143531      5.69759      47.4896 
0.000402903      2.75530     -160.052 
-0.000141720      3.11130     -135.260 
-0.000213606      3.02167      29.1099 
0.000373009      6.95589     -41.6199 
0.000363078      4.37659     -130.459 
-0.000401993      6.82608     -36.6013 
-0.000273476      2.86541     -57.2528 
-0.000545797      3.80867      79.1031 
0.000264019      5.84946      33.2826 
0.000201685      2.11464      38.2790 
0.000388105      5.35093      13.1792 
0.000352437      5.65722     -132.062 
3.54049e-05      5.55590     -41.2053 
0.000271661      1.64806      109.864 
-0.000100929      2.21020      127.648 
0.000407514      2.46455      105.051 
0.000166421      2.87141     -1.79614 
-0.000268012      1.64879     -95.9181 
6.90379e-05      4.97229     -143.752 
0.000401097      4.78299      118.333 
-0.000200631      4.60977     -114.341 
-0.000158731      7.02699      37.8321 
0.000785250      4.11847      98.7990 
-0.000473087      4.74031      48.6776 
-0.000764665      3.01294      29.2024 
9.91904e-05      5.54932     -41.1276 
0.000703510      2.89456      163.130 
0.000284165      4.96423     -143.684 
0.000190600     0.774661      39.2374 
0.000644438      4.58681     -80.2091 
0.000287431      4.21523      38.2565 
0.000219252      5.65052     -131.987 
-0.000682926      3.75299      38.1829 
0.000159946      3.86219      128.799 
-0.000184831      5.48372     -27.5931 
-3.28137e-05      3.08370     -30.3902 
3.27390e-05      5.70435      47.4155 
3.27317e-05      5.84003      52.9339 
3.26686e-05      3.96797     -138.678 
-6.39875e-05      2.08339      51.0395 
-0.000248876      3.04962      121.866 
9.60571e-05      4.00346     -167.595 
9.20591e-05      1.65148      110.191 
-0.000799441      1.33959      59.9899 
-0.000157481      3.07002      142.943 
-3.23319e-05      3.08730     -30.1362 
6.39135e-05      3.97549     -138.773 
-0.000332228      4.61889     -114.290 
-0.000154336      2.86002     -57.4213 
0.000309064      5.89227     -37.4144 
-6.33222e-05      3.10717     -29.2874 
-0.000608159      1.65873     -95.8824 
0.000642587      1.94281     -128.522 
0.000120886      2.64775      101.989 
0.000176977      3.10693      157.479 
-0.000212131      3.11589     -29.1975 
0.000178767      5.16310      22.7906 
0.000704756      4.00132     -167.735 
0.000236747      3.96890     -138.882 
0.000266360      6.96337     -41.5652 
0.000476801      2.15870     -166.608 
0.000120194      2.12085      38.4910 
0.000282613      2.74505      82.2536 
0.000313654      6.39932      39.6107 
-0.000990206      6.83411     -36.5513 
8.99456e-05      2.87111     -1.59668 
-3.06060e-05      4.84381     -60.8420 
0.000285709      3.85593      128.683 
0.000233071      2.25417      25.7693 
-3.04005e-05      2.08195      50.6525 
-0.000468494      4.73371      48.7685 
-0.000227739      3.06204      142.831 
-0.000380336      3.83283      62.8333 
0.000116492      2.75191     -160.248 
-8.68176e-05      3.36966      74.6852 
0.000197278      2.85771     -169.516 
0.000362940      2.78167      153.527 
-0.000265912      4.05444      12.3909 
-0.000143554      4.48116      63.7780 
-0.000510480      3.04113      121.965 
-0.000466841      3.05105      178.498 
8.63036e-05      4.56859     -130.384 
2.92786e-05      4.38308     -130.559 
8.58914e-05      3.52800     -9.46232 
0.000203645     0.776209      38.1987 
-0.000318191      5.46059      118.912 
-0.000329855      3.12463     -29.1080 
0.000275644      4.97016     -143.591 
0.000861086      1.12712      27.4744 
-0.000139434      2.85465     -57.5904 
-0.000164249     0.559017     -10.3048 
-0.000133237      3.83888     -97.0325 
5.69658e-05      5.49229     -29.9260 
8.03862e-05      5.84110      33.3364 
0.000159710      1.13600      27.2417 
-2.83928e-05      2.08830      50.4403 
2.83708e-05      3.31073     -97.8119 
8.41697e-05     0.906863     -138.576 
0.000182284      5.33892      13.0992 
2.83097e-05      7.16197     -40.6967 
0.000134308      2.12869      38.3235 
0.000191498      3.26435     -162.897 
0.000135564      2.74591     -159.981 
0.000158379      5.48362     -29.9782 
-8.18204e-05      1.27475     -138.180 
-0.000257827      4.62301     -114.403 
8.10841e-05      5.15923      22.6882 
-0.000311955      3.84012     -97.1805 
-0.000402168      4.47675      63.8928 
0.000204820      3.51650     -9.32839 
0.000179845      6.97085     -41.5107 
0.000198705      4.56212     -130.288 
8.06922e-05      3.30082     -97.8355 
