! Center RA: 13 10 28.66385,  Dec: +32 20 43.78277 (2000.0)
! Established model.
! Flux (Jy) Radius (mas)  Theta (deg)  Major (mas)  Axial ratio   Phi (deg) T \
! Freq (Hz)     SpecIndex
 0.0287456    0.0223605      116.565 
 0.0610478     0.322490     -60.2551 
  0.133725   0.00999997      90.0000 
 0.0356431    0.0141421      135.000 
  0.185935     0.308869     -60.9454 
 0.0708365      0.00000      0.00000 
 0.0640531     0.295296     -61.6992 
0.00788567    0.0141421     -45.0000 
 0.0821374    0.0360555     -56.3097 
0.00511997    0.0316229      108.435 
0.00933090    0.0447214      116.565 
 0.0309443    0.0538513      111.801 
 0.0830954     0.281780     -62.5256 
0.00262451     0.336155     -59.6209 
0.00126176     0.349857     -59.0362 
 0.0202060     0.363593     -58.4957 
 0.0153453    0.0509900      101.310 
 0.0252928     0.368917     -57.1715 
 0.0171338    0.0316230     -71.5653 
0.00840567    0.0499998      90.0000 
0.00642903    0.0300001     -90.0000 
0.00571643    0.0509900      78.6901 
0.00359785    0.0316230     -108.435 
0.00459887    0.0538517      68.1987 
0.00255098    0.0360556     -123.690 
0.00202437    0.0424264     -135.000 
0.00426263    0.0583096      59.0362 
0.00160216    0.0500000     -143.130 
 0.0136834    0.0583095     -149.036 
0.00454835     0.374433     -55.8855 
0.00478777    0.0640312      51.3403 
0.00451907    0.0707106      44.9999 
0.00325508     0.380132     -54.6375 
0.00192192    0.0781025      39.8056 
 0.0429024     0.139284     -68.9625 
 0.0166356     0.136015     -72.8973 
0.000572900     0.143178     -77.9052 
0.000280932     0.152643     -58.3925 
0.000820566     0.141421     -81.8699 
0.000275902     0.158114     -55.3048 
0.000271099     0.164012     -52.4314 
0.000528597     0.170294     -49.7636 
0.00103278     0.140357     -85.9143 
0.00750122     0.169706     -45.0000 
0.000973437     0.140000     -90.0000 
0.00376312     0.140357     -94.0856 
0.00106116     0.150333     -93.8141 
 0.0124793     0.170294     -93.3664 
0.00574385     0.162788     -42.5104 
0.00568768     0.156205     -39.8056 
 0.0136377     0.444185     -58.8150 
0.00788094     0.449444     -57.7244 
0.00456453     0.435660     -58.1340 
0.00304133     0.470106     -51.9112 
0.000421760     0.439090     -59.9314 
0.000467993     0.434166     -61.0736 
0.000570538     0.429418     -62.2415 
0.000652947     0.424853     -63.4349 
0.000763727     0.420476     -64.6538 
0.00458602     0.398246     -61.5044 
0.00415776     0.411825     -60.9454 
0.00192454     0.403113     -60.2551 
0.00296326     0.454533     -50.3558 
0.000675416     0.407063     -62.1759 
0.00316366     0.402492     -63.4349 
0.00261382     0.398121     -64.7223 
0.000997953     0.407185     -65.3231 
0.000467604     0.416293     -65.8978 
0.00506946    0.0854398      69.4440 
0.00376965    0.0905538      83.6597 
 0.0125813     0.389102     -64.0935 
0.00708620    0.0921952      77.4711 
0.000249997    0.0894427      63.4349 
0.00142913     0.328938     -70.4633 
0.000151046     0.411461     -64.0577 
0.00271246     0.764853     -64.4400 
0.00126835     0.769220     -63.7681 
9.65973e-05     0.746726     -69.6236 
0.000280184     0.743303     -70.3462 
0.000183763     0.773692     -63.1038 
0.000179545     0.740000     -71.0754 
0.000265241     0.778267     -62.4472 
0.000343369     0.736817     -71.8110 
0.00662305     0.336155     -67.2490 
0.000335234     0.782943     -61.7984 
0.00667265     0.733757     -72.5528 
0.000391954     0.787718     -61.1573 
7.50437e-05     0.792591     -60.5241 
0.000498657     0.783901     -60.1645 
0.000697881     0.788923     -59.5345 
0.000809735     0.794040     -58.9125 
0.000836392     0.799250     -58.2986 
0.000881872     0.804550     -57.6927 
0.00168225     0.809938     -57.0948 
 0.0123432     0.296142     -78.3106 
0.00171178     0.108167     -123.690 
0.00399388     0.640703     -55.8139 
0.000928836     0.764788     -62.7649 
0.00280338     0.102956     -119.055 
0.000222738     0.294279     -80.2176 
0.000240084     0.394462     -59.5345 
0.000158823     0.760263     -63.4349 
0.00170551     0.280179     -87.9546 
0.00248672     0.399625     -58.2986 
0.000387489     0.724224     -72.3156 
0.00117698     0.404969     -57.0948 
0.000352291     0.769415     -62.1027 
0.00107013    0.0900001      90.0000 
0.000521928     0.774145     -61.4486 
0.000468476     0.743303     -72.7839 
0.000253811     0.778974     -60.8025 
0.00752754     0.298329     -76.4296 
 0.0149804    0.0984886     -113.962 
0.00307104     0.281603     -83.8845 
0.000384719     0.280713     -85.9144 
0.00606229     0.278927     -104.534 
0.00102405     0.391152     -57.5288 
0.00143919     0.382753     -56.7251 
0.00431457     0.313209     -73.3008 
0.00103363     0.393573     -62.7839 
3.67353e-05     0.276586     -102.529 
8.64550e-05     0.408167     -59.0362 
0.000952217     0.429535     -65.2249 
0.00121862    0.0943399     -122.005 
0.00826254    0.0894426     -116.565 
0.00721685     0.384838     -65.4328 
0.00317021     0.269258     -105.068 
0.000387861    0.0948684     -108.435 
 0.0114739     0.358469     -67.0113 
0.00247365     0.425441     -66.4477 
0.00211724     0.341760     -69.4440 
0.00252517     0.310483     -75.0686 
 0.0114817    0.0854399     -110.556 
 0.0138294     0.354683     -68.4986 
 0.0160603    0.0824621     -104.036 
0.00676402    0.0806225     -97.1250 
0.00655359     0.617738     -60.9454 
0.000562673     0.653070     -64.6121 
3.56670e-05     0.609016     -60.4885 
0.00239536     0.648845     -65.4099 
0.000130300     0.614003     -59.6764 
0.00611171     0.644050     -53.8418 
0.00206426     0.644748     -66.2180 
0.00197778     0.636003     -53.3103 
0.00288262     0.640781     -67.0362 
0.00166678     0.636946     -67.8645 
0.00127825     0.612944     -61.7626 
7.34584e-05     0.621772     -62.1985 
0.000480503     0.633246     -68.7026 
0.00227037      1.17290     -39.1176 
0.00171889      1.19854     -49.3987 
0.00204566      1.20507     -49.0377 
0.00290522      1.15109     -39.3595 
0.00149653      1.33222     -54.1623 
0.00102392      1.21165     -48.6806 
0.00884590     0.371618     -66.1941 
0.00284969     0.116619      120.964 
0.00352513      1.06400     -53.0224 
0.00102896      1.32639     -54.5125 
0.00174324      1.14337     -39.6772 
0.000340087      1.21828     -48.3274 
0.000514717      1.23907     -47.9440 
0.00251656     0.284429     -79.8753 
0.00129329      1.24579     -47.6026 
0.000290608      1.32061     -54.8658 
0.000231170      1.34618     -54.0665 
0.000557162      1.28413     -56.4337 
0.00102976      1.25256     -47.2648 
0.000282580      1.35207     -53.7234 
2.99235e-05     0.122066      124.992 
0.00126162      1.15884     -39.0459 
0.00149814      1.36400     -53.0461 
0.000500128     0.128062      128.660 
0.000784819      1.05475     -42.3102 
0.000490873     0.134536      131.987 
0.000302410      1.18849     -38.5092 
0.00363718     0.300832     -74.5778 
0.00254823     0.286356     -77.9052 
0.000445953      1.37004     -52.7119 
0.000796064     0.134536      138.013 
0.000208711      1.16662     -38.7365 
0.000149549     0.128062      141.340 
0.00148353     0.526308     -38.8298 
0.00139298     0.935201     -65.3532 
0.00305850     0.534135     -38.1572 
0.000152300     0.759276     -77.0619 
0.00310765     0.757100     -77.7995 
0.00112809     0.939415     -64.7989 
0.000940358     0.943716     -64.2495 
0.00102083     0.766877     -77.9574 
0.00306233     0.724500     -63.7886 
0.000480981     0.948103     -63.7052 
0.000413855     0.528015     -37.3039 
0.000244272     0.952575     -63.1660 
4.24835e-05     0.957131     -62.6318 
0.00184331     0.504480     -39.3693 
0.000992296     0.940213     -66.1613 
0.000192138     0.510882     -40.2364 
0.000399819     0.503289     -40.9717 
0.000290485     0.936216     -66.7211 
7.04356e-06     0.473814     -45.8551 
1.39166e-05     0.512250     -38.6598 
0.000223253     0.481041     -43.3153 
0.00208566     0.466690     -45.0000 
0.000147334     0.489183     -40.8554 
0.000802817     0.932309     -67.2856 
0.000295752     0.496790     -40.1009 
0.000698291     0.747329     -77.6375 
0.000106364     0.948262     -62.3540 
0.00137748    0.0900001     -90.0000 
0.000400498     0.928493     -67.8548 
1.20256e-05     0.506063     -37.7757 
0.000566836    0.0905540     -83.6597 
0.000129648     0.924770     -68.4287 
0.00177511     0.364006     -69.0755 
0.000512772     0.351141     -70.0169 
0.00180449     0.367696     -67.6199 
0.000379107     0.376962     -68.1986 
0.00110179     0.390000     -67.3801 
0.000885750     0.380789     -66.8014 
0.000373402     0.325730     -72.1213 
0.00156337     0.393954     -66.0375 
0.00151130    0.0799999     -90.0000 
0.000313736     0.930860     -50.6673 
2.27163e-05     0.704911     -58.3392 
0.000274253     0.699714     -59.0362 
0.000401788     0.937230     -50.1944 
0.000304796     0.694622     -59.7436 
0.000379221     0.951315     -50.1173 
0.000557732     0.689638     -60.4612 
0.00157490     0.684763     -61.1892 
0.000364572     0.680000     -61.9275 
0.000266616     0.957758     -49.6583 
0.000224161     0.675352     -62.6761 
0.00119684     0.980816     -50.7928 
4.62273e-05     0.686003     -59.3227 
8.81599e-05     0.670820     -63.4349 
0.000125369     0.950158     -49.2679 
0.000138517     0.698928     -56.0826 
0.000113612     0.666408     -64.2040 
0.000104747     0.662118     -64.9831 
0.000221921     0.704557     -55.4077 
0.000158331     0.657951     -65.7723 
0.000205785     0.956713     -48.8141 
0.000558125     0.710282     -54.7436 
0.000161611     0.653911     -66.5713 
3.41864e-05     0.963328     -48.3665 
1.57196e-05     0.663099     -66.9149 
7.79941e-06     0.106301     -48.8141 
0.000173780     0.955877     -47.9682 
3.15524e-05     0.671193     -65.3441 
7.67072e-06     0.667083     -66.1247 
0.000198159     0.987168     -50.3431 
0.000157467     0.680955     -60.0464 
0.00407178    0.0707106     -98.1301 
0.00287106    0.0728011     -105.945 
0.000318983     0.676018     -60.7808 
2.13899e-05     0.693397     -56.7683 
2.04853e-05     0.671193     -61.5258 
3.95683e-05     0.666483     -62.2815 
3.80631e-05     0.661891     -63.0478 
0.000620395    0.0999999     -53.1301 
0.000119323     0.657419     -63.8247 
0.000512770     0.702140     -54.2726 
1.36808e-05     0.362491     -65.5560 
6.70353e-06     0.694046     -53.7905 
0.000131522     0.588727     -69.1022 
4.44797e-05     0.592368     -68.1986 
0.000123908     0.375766     -64.7989 
0.000894579      1.50047     -56.4158 
0.000889481      1.43544     -58.9678 
0.00246401    0.0632457     -108.435 
0.000115484      1.52552     -55.6849 
0.00120371      1.53118     -55.3758 
0.000366768    0.0921954     -49.3987 
0.00125335    0.0670820     -116.565 
0.000126847      1.44402     -59.1723 
2.26258e-05      1.53942     -55.5873 
0.000176246      1.23329     -71.5651 
0.000104554      1.23016     -72.0069 
0.000259324     0.302655     -7.59465 
0.000320541     0.312570     -7.35239 
4.90827e-05      1.23968     -72.1497 
1.48001e-05      1.23762     -74.0546 
0.00316695      1.57433     -74.9045 
0.000159815      2.30463     -67.5523 
0.000224045      2.73057     -58.1726 
0.00261905      2.30846     -67.3229 
0.000512586      2.72208     -58.0616 
0.000367427      1.97327     -71.3814 
0.000489658      1.98595     -71.2001 
0.000630362      2.72531     -58.3512 
0.000863306     0.737564     -49.3987 
0.00138995     0.744110     -48.8141 
0.000239114      1.97010     -71.6570 
0.000263411      1.57696     -74.5537 
2.48862e-05      2.71046     -57.6585 
4.88715e-05      2.72861     -58.6401 
7.21252e-05      2.70740     -57.3665 
0.000115558      1.95747     -71.8427 
4.72766e-05      2.73198     -58.9283 
0.000113603      2.70440     -57.0738 
0.000112789      2.72683     -59.1083 
2.23040e-05      2.06344     -69.2815 
2.18794e-05      2.07993     -68.8636 
4.34392e-05      2.70985     -56.8964 
0.000375954      2.73031     -59.3961 
4.30280e-05      1.92925     -72.5042 
8.40625e-05      2.08355     -68.6071 
0.000105135      2.70148     -56.7805 
0.000239965      2.70697     -56.6035 
0.000101480      1.91672     -72.6995 
0.000951206      2.09652     -68.4523 
5.70141e-05      1.90421     -72.8973 
0.000133057      1.56467     -74.8091 
0.000669973      2.70416     -56.3099 
0.000188847      1.90129     -73.1853 
0.00130321      2.72523     -59.5771 
0.000239829      2.70703     -55.8403 
0.000239705      1.88884     -73.3879 
0.000907415      2.37255     -70.0375 
1.44702e-05      2.71577     -55.1981 
0.000307831      1.56208     -75.1631 
0.000576978      2.72149     -55.0252 
6.77969e-05      2.32545     -66.9632 
2.61973e-05      2.34252     -66.6087 
0.000288134     0.745185     -49.8991 
1.29112e-05      2.34651     -66.3846 
0.000599553      1.57305     -69.1455 
5.04303e-05      2.35968     -66.2594 
8.37640e-05      2.36373     -66.0375 
0.000103242      1.88600     -73.6790 
4.52658e-05      2.37693     -65.9151 
2.24566e-05      2.27853     -67.8250 
0.000133937      2.38103     -65.6954 
1.06001e-05      2.27477     -68.0583 
0.000300664      1.87641     -73.5932 
5.83103e-05      2.26177     -68.1986 
0.000267377      1.57175     -75.2564 
0.000293486     0.724224     -54.5543 
6.44142e-05      2.39426     -65.5759 
0.000110929      2.24511     -68.5777 
0.000214408      2.39842     -65.3583 
0.000128301      2.69863     -56.4866 
0.000130399      2.10583     -68.5523 
9.68987e-05     0.750733     -48.2397 
0.000114625      1.56924     -75.6095 
5.67002e-05      2.24147     -68.8157 
8.62040e-05      2.40260     -65.1416 
0.00117077      4.08755     -63.2469 
4.06615e-05     0.445982     -19.6538 
0.000347581     0.455412     -19.2307 
7.29399e-05     0.464866     -18.8247 
3.59108e-05     0.474342     -18.4350 
7.07550e-05     0.502892     -17.3540 
6.90745e-05     0.449444     -20.8545 
0.000102041     0.522015     -16.6993 
0.000550750      4.11238     -65.4292 
9.84619e-05     0.440114     -21.3179 
3.29657e-05     0.531601     -16.3895 
0.00141264      1.73066     -56.3099 
9.71551e-05      4.07863     -63.1837 
3.21956e-05     0.528867     -15.3501 
9.43005e-05     0.430813     -21.8014 
0.000123545     0.538517     -15.0685 
0.000293285      4.08315     -63.0584 
6.07237e-05     0.434626     -23.0255 
8.77741e-05     0.425441     -23.5523 
0.000254999     0.548179     -14.7968 
0.000112176      1.64648     -61.7228 
2.82367e-05     0.412311     -22.8337 
2.78506e-05     0.357351     -17.9279 
2.74979e-05     0.344819     -16.8584 
5.39998e-05     0.335261     -17.3540 
0.000183479      4.10824     -65.5560 
0.000229488      1.64177     -62.0302 
0.000204800     0.557853     -14.5344 
0.000310295      4.07424     -62.9947 
2.65627e-05     0.439090     -30.0686 
0.000128484     0.322800     -16.1892 
2.58515e-05     0.444185     -31.1850 
7.38923e-05     0.449444     -32.2756 
0.000325245      4.11734     -65.6136 
0.000166186     0.310483     -14.9314 
0.000336821     0.567538     -14.2811 
0.000264824      1.63710     -62.3393 
0.000192715     0.441022     -32.9694 
8.86520e-05     0.298329     -13.5704 
0.000204195     0.288617     -14.0362 
0.000183338      4.11322     -65.7405 
0.000100836      4.06533     -62.9307 
0.000119991     0.577235     -14.0362 
7.93460e-05      1.64596     -62.5009 
0.000898722      3.93620     -49.4303 
0.000291235      3.92210     -49.4462 
0.000197802      3.94271     -49.3199 
3.83850e-05      3.89391     -49.4785 
7.45933e-05      3.87981     -49.4948 
0.000145009      3.95682     -49.3045 
0.000106805      3.86571     -49.5112 
0.000167117      3.97092     -49.2892 
0.000165765      3.85161     -49.5278 
0.000182024      3.98502     -49.2739 
0.000151176      3.83751     -49.5445 
0.000885096      3.81278     -46.5941 
0.000111465      3.99155     -49.1652 
0.000109636      3.83103     -49.6583 
7.88592e-05      3.99810     -49.0567 
2.60430e-05      3.82341     -49.5612 
9.95688e-05      3.81694     -49.6755 
2.53940e-05      4.00466     -48.9487 
2.51062e-05      4.04353     -48.1076 
4.91455e-05      4.05021     -48.0023 
2.40624e-05      4.05691     -47.8973 
0.000138855      3.81047     -49.7901 
4.71713e-05      4.06362     -47.7927 
2.31275e-05      3.99912     -49.2588 
6.80891e-05      4.07708     -47.5845 
0.00114491      4.08383     -47.4809 
0.000148124      3.80402     -49.9052 
6.25668e-05      4.00020     -49.4608 
0.000171162      3.79759     -50.0206 
0.000628361      3.80552     -46.4906 
0.000103815      4.00132     -49.6627 
0.000167769      3.79117     -50.1364 
0.000147288      3.78477     -50.2526 
0.000154175      4.00895     -49.7552 
0.000165545      3.77839     -50.3692 
0.000140973      3.77202     -50.4862 
4.93181e-05      4.01659     -49.8474 
8.47523e-05      3.76566     -50.6035 
9.88582e-06      3.77445     -48.1143 
8.95131e-05      3.80518     -46.2778 
6.95046e-05      3.76778     -48.2275 
5.90700e-05      4.01015     -49.9566 
9.05536e-05      3.75932     -50.7213 
1.57685e-05      3.81210     -46.1691 
0.00279441      7.16208     -69.9964 
0.00120966      7.78165     -48.8556 
0.000427376      7.77412     -48.8071 
0.000747671      7.41307     -70.7829 
0.000204791      7.78071     -48.7517 
0.000893297      7.17148     -70.0237 
3.27624e-05      7.81054     -48.0619 
0.000126159      7.81722     -48.0073 
6.06628e-05      7.77507     -48.9111 
0.000232092      7.81650     -47.9038 
0.000143889      7.78261     -48.9595 
0.000212641      7.40034     -70.8305 
0.000107888      7.77605     -49.0151 
0.000281879      7.82320     -47.8495 
0.000170734      7.39706     -70.9037 
0.000245380      7.78360     -49.0634 
0.000138216      7.81579     -47.8003 
0.000255067      7.16807     -70.0988 
0.000133316      7.48760     -70.0888 
0.000309775      7.79116     -49.1116 
2.22094e-05      7.39379     -70.9769 
0.000225758      7.82251     -47.7460 
2.17837e-05      7.38730     -71.1236 
2.13736e-05      7.38407     -71.1970 
0.000477967      7.63820     -47.7061 
4.17090e-05      7.37765     -71.3440 
0.000100801      7.49101     -70.0169 
5.99996e-05      7.37446     -71.4176 
7.57131e-05      7.37128     -71.4913 
0.000128641      7.49443     -69.9450 
0.000216592      7.83664     -47.7411 
0.000279850      7.79872     -49.1596 
0.000105339      7.36811     -71.5651 
0.000132279      7.49787     -69.8733 
0.000126924      7.36495     -71.6389 
0.000104643      7.50131     -69.8015 
0.000166453      7.36181     -71.7127 
4.33420e-05      7.14079     -69.7633 
0.000151900      7.84337     -47.6870 
0.000266006      7.53146     -48.6065 
0.000194327      7.80629     -49.2076 
0.000107462      7.50477     -69.7299 
8.13212e-05      7.13488     -69.6601 
2.68991e-05      7.18349     -70.2281 
6.26399e-05      7.12550     -69.6322 
0.000131553      7.85010     -47.6330 
0.000164877      7.35868     -71.7866 
5.96847e-05      7.18953     -70.3301 
3.72830e-05      7.50824     -69.6583 
0.000103010      7.51172     -69.5868 
1.20188e-05      7.12899     -69.5568 
3.43759e-05      7.64493     -47.6507 
9.02851e-05      7.11962     -69.5287 
5.55953e-05      7.81386     -49.2555 
2.19704e-05      7.86423     -47.6283 
1.09458e-05      7.19559     -70.4319 
0.000895186      5.51765     -65.4787 
0.000380912      5.51272     -65.3410 
0.000139607      5.53592     -66.5840 
8.30434e-05      5.50782     -65.2031 
0.000290880      5.50295     -65.0649 
0.000810436      5.54510     -66.6250 
0.000504428      5.49812     -64.9264 
9.27277e-05      5.50236     -64.8321 
0.000289560      5.49758     -64.6935 
0.000249431      5.50970     -63.2489 
7.12830e-05      5.49331     -64.7878 
0.000549267      5.55428     -66.6660 
0.000787823      5.50077     -63.2020 
0.000180371      5.49389     -65.0209 
0.000322043      5.56346     -66.7068 
1.85425e-05      5.57265     -66.7474 
0.00175069      3.21960     -72.4655 
0.00168374      3.22262     -72.2960 
