! Center RA: 16 35 15.49297,  Dec: +38 08 04.50058 (2000.0)
! Established model.
! Flux (Jy) Radius (mas)  Theta (deg)  Major (mas)  Axial ratio   Phi (deg) T \
! Freq (Hz)     SpecIndex
   1.43692      0.00000      0.00000 
 0.0362935    0.0282843      135.000 
 0.0238594    0.0447214      116.565 
0.00814283    0.0200000     -90.0000 
 0.0117272    0.0400000     -90.0000 
 0.0391585    0.0600000     -90.0000 
 0.0486599    0.0632456      108.435 
  0.302755    0.0800000     -90.0000 
  0.187230    0.0824621      104.036 
  0.113133    0.0565686      45.0000 
 0.0650377     0.580000     -46.3972 
0.00543353     0.439090     -30.0686 
 0.0219699     0.466476     -30.9638 
 0.0243225     0.456508     -28.8108 
0.00254050     0.712180     -51.8428 
0.00763492     0.700000     -53.1301 
0.00964101     0.551725     -46.4688 
 0.0181808     0.688186     -54.4623 
0.00469871     0.565685     -45.0000 
0.00306523     0.537401     -45.0000 
0.00829149     0.572713     -24.7751 
0.00866036     0.416173     -54.7824 
0.000523712     0.438634     -46.8476 
0.00202575     0.424264     -45.0000 
0.00562608     0.449444     -32.2756 
 0.0112045     0.593970     -45.0000 
0.00115867     0.493964     -58.2405 
0.00272643     0.566392     -47.8624 
0.00238125     0.483735     -60.2551 
0.00463389     0.501198     -61.3895 
0.00561982     0.518845     -62.4472 
0.00791344     0.377359     -57.9946 
0.00701209     0.617738     -60.9454 
0.00284987     0.509902     -64.4400 
0.00341067     0.709366     -49.5739 
0.00196583     0.453431     -41.4237 
0.00107118     0.622254     -45.0000 
0.00163616     0.468615     -39.8056 
0.000660891     0.483322     -65.5560 
0.00155401     0.360555     -56.3099 
 0.0229650     0.621289     -86.3086 
 0.0123151     0.600000     -90.0000 
0.00281725     0.742159     -75.9638 
0.00937980     0.766551     -74.8760 
0.00690579     0.581378     -93.9452 
 0.0168593     0.865563     -49.6859 
0.00837699     0.852760     -50.7106 
0.00238759     0.837377     -49.8440 
0.00113502     0.860233     -54.4623 
 0.0168066     0.751532     -25.2011 
0.00899705     0.706824     -25.1148 
0.00286792     0.970979     -32.3807 
0.00883500     0.858836     -62.2415 
0.00591042     0.822922     -64.0577 
0.00678076     0.905539     -59.4703 
0.000768508     0.814371     -65.3231 
0.00564715     0.791202     -69.2744 
0.000281892     0.796492     -61.5044 
0.000110713     0.806226     -60.2551 
 0.0191978     0.305941     -78.6901 
0.00105853     0.335261     -72.6460 
0.000311963     0.240832     -94.7636 
0.00448762     0.228035     -105.255 
0.00660209     0.215407     -111.801 
0.000559509     0.341760     -69.4440 
0.00209364     0.367695     -67.6199 
0.00326207     0.375766     -64.7989 
0.000219862     0.388330     -55.4915 
0.00132736     0.400000     -53.1301 
0.000515939     0.393954     -66.0375 
0.000132501     0.320000     -90.0000 
0.000853461     0.205913     -119.055 
0.000601508     0.320624     -93.5763 
5.66480e-05     0.412310     -67.1663 
0.00197145     0.329848     -75.9638 
 0.0149487     0.688767     -64.1790 
0.00807359     0.302655     -82.4054 
3.05371e-05     0.349285     -66.3706 
0.000483375     0.357771     -63.4349 
0.00120113     0.349857     -59.0362 
0.00169856     0.325576     -79.3803 
0.00274045     0.300666     -86.1859 
0.00166073     0.322490     -82.8750 
0.000185274     0.320624     -86.4237 
0.00912618     0.814125     -62.1759 
0.00752256     0.189737     -18.4349 
0.00508115     0.843801     -31.4296 
0.00508771     0.200000     -126.870 
0.00661894     0.234094     -19.9831 
0.00206301     0.816333     -30.9638 
0.00146193     0.212603     -131.186 
0.000659936     0.833547     -30.2564 
 0.0229797     0.196977      66.0375 
0.00846426     0.208806      73.3008 
0.000155659     0.205913      60.9454 
0.00412660     0.208806     -16.6992 
0.00433410     0.164924     -14.0362 
 0.0395845     0.145602     -15.9454 
0.00785473     0.909725     -33.3407 
0.00170813     0.926499     -32.6609 
0.00710974     0.898888     -32.2756 
 0.0327110     0.101980     -11.3099 
0.00323235     0.328024     -52.4314 
0.00746845     0.340588     -93.3665 
0.00572531     0.344093     -54.4623 
 0.0110301      1.76511     -70.1278 
0.00641860      1.77200     -69.5196 
0.00319065      1.74631     -69.9048 
0.000961849      1.79075     -69.7435 
0.000725446      1.87275     -70.0169 
0.00325717      1.86601     -70.5940 
 0.0165820      2.15081     -59.8586 
0.00749974      2.27754     -59.3814 
0.000965750      2.12349     -60.0543 
0.00176426      2.11358     -60.5241 
0.00290482      2.08634     -60.7320 
0.00165913      2.05913     -60.9454 
 0.0189324      2.90000     -83.2671 
0.00103948      2.89772     -83.6598 
 0.0109642      3.44836     -86.0091 
0.00359699      3.46976     -85.7026 
0.00802021      3.53010     -82.5126 
0.00679924      3.44703     -86.3407 
0.00603012      3.24395     -92.8271 
0.00436380      3.22397     -92.8447 
0.000957979      3.20506     -93.2195 
0.000402518      3.28299     -92.4441 
0.00202000      3.18509     -93.2397 
0.00630039      3.32217     -92.0700 
0.00278391      3.16512     -93.2602 
0.00153031      3.14516     -93.2809 
0.00947553      3.95434     -97.5563 
 0.0100897      3.20225     -87.8524 
0.00719567      3.83338     -94.7885 
0.00546675      1.90379     -70.9940 
0.00559565      3.68402     -96.5463 
0.00681851      3.95176     -97.2689 
0.00314450     0.599333     -64.2900 
0.00541419     0.572713     -65.2249 
 0.0103699      1.88489     -70.7960 
0.00448628      3.85331     -94.7636 
0.00269983      3.98848     -93.7376 
0.000345002     0.742428     -62.7447 
0.00212956     0.769415     -62.1027 
0.00121121     0.240000      90.0000 
0.00810827     0.220907      84.8056 
0.000561647     0.240832      94.7636 
0.00224402     0.263059      98.7462 
0.00184698     0.286356      102.095 
0.00169443     0.203961      78.6901 
0.000971052    0.0600000      0.00000 
 0.0172985      1.53075     -118.909 
0.00392567      1.56525     -116.565 
 0.0128665      1.64754     -100.491 
0.00228992      1.65130     -101.174 
0.00255339      1.68024     -98.9017 
0.000395235      1.63169     -101.310 
0.00173772      1.63573     -101.997 
0.00938632      2.48338     -97.8691 
0.00242570      2.48073     -97.4115 
0.00507519      2.47935     -100.222 
0.000543819      2.47823     -96.9530 
0.00330089      2.47588     -96.4935 
0.00550015     0.876584     -34.7778 
0.000648653     0.648999     -33.6901 
0.00341407     0.621289     -33.1785 
0.00209484     0.904434     -35.0958 
0.00337423     0.724707     -62.0205 
9.22915e-05     0.734302     -60.6422 
0.00430589     0.297321      19.6538 
0.00586333     0.417612     -16.6992 
0.00532833      2.95256     -68.1265 
0.00496703      2.28140     -87.9904 
0.00758397      2.96007     -67.7673 
0.00747047      2.52032     -90.9094 
0.00716795      1.31027     -58.7363 
0.00208653      1.30000     -59.4898 
0.00717054      2.30139     -88.0079 
0.00188139      3.07883     -68.2677 
0.00370924      3.07148     -68.6143 
0.00103364      2.94156     -67.6199 
0.000798305      1.32740     -59.1843 
0.000500691      2.58380     -86.8940 
0.000210394      2.96769     -67.4098 
2.80194e-05      2.32138     -88.0251 
0.00136220     0.882950     -76.9081 
0.000914169     0.907083     -75.9638 
0.00111430     0.878635     -78.1785 
0.000972257     0.936803     -73.8866 
0.00266474     0.851587     -80.5377 
0.000427835     0.967678     -71.9395 
0.00482752     0.992975     -71.2001 
0.00279797     0.826075     -83.0470 
7.57483e-05     0.999600     -70.1148 
-0.0126367     0.100000     -90.0000 
 0.0280964    0.0400000      0.00000 
-0.000295700     0.107703      68.1986 
-0.00111892     0.101980      78.6901 
 0.0143081     0.121655      170.538 
-0.00103025     0.100000      90.0000 
-0.00185191     0.101980      101.310 
-0.0155543    0.0824621     -104.036 
-0.00217927     0.107703      111.801 
-0.00428781     0.134164      26.5651 
-0.00139752     0.145602      15.9454 
-0.00631620     0.116619      120.964 
-0.00359970     0.180000      0.00000 
-0.00593292     0.128063      128.660 
-0.00604952    0.0632456     -108.435 
 0.0104815     0.128062     -141.340 
-0.00151162     0.181108     -6.34017 
-0.00166609     0.205913     -29.0546 
-0.0127673    0.0721110     -123.690 
-0.00188398     0.160000      0.00000 
-0.00118648     0.196977     -23.9625 
0.00724952    0.0200000      0.00000 
0.00235742     0.128062     -51.3402 
0.000237729     0.152315      23.1986 
-0.000248960     0.140000      0.00000 
-0.00807112     0.101980     -101.310 
0.00272668     0.512640     -69.4440 
-0.00105206     0.178885      116.565 
-0.00213831     0.652993     -49.9697 
0.00376819     0.493964     -68.6294 
-0.00257602     0.152316      113.199 
0.00113639     0.520000     -67.3801 
-0.00862141     0.394462     -30.4655 
0.00249916     0.872009     -36.6071 
0.000938142     0.412311     -14.0362 
0.000865842     0.107703      158.199 
0.000219952     0.278568      21.0375 
-0.00366107     0.948262     -27.6460 
0.00136290     0.288444     -56.3099 
0.00304134     0.250599      28.6105 
-0.000308047     0.624820     -50.1944 
 0.0124489     0.101980      168.690 
-0.00307742     0.161245      119.745 
-0.000341547     0.596657     -50.4403 
0.00339543     0.300000     -53.1301 
-0.000902481     0.568507     -50.7106 
0.000433131     0.436807     -15.9454 
-0.00172724     0.957706     -28.7060 
0.00441569     0.260768     -57.5288 
-0.00123252     0.528015     -52.6961 
0.000529430     0.844038     -36.3268 
0.000726794     0.697710     -62.7004 
-0.00182609     0.500000     -53.1301 
0.00187557     0.272029     -53.9726 
0.00148067     0.860232     -35.5377 
0.000848129     0.461736     -72.3499 
-0.000843326     0.134164      116.565 
0.00146644     0.743236     -23.8059 
0.00243202     0.468188     -70.0169 
0.00254454     0.212603      41.1859 
-0.00491655     0.144222      123.690 
-0.00496024     0.460435     -55.6197 
0.000450822     0.278568      111.038 
0.000115953     0.247386      104.036 
-0.00951341    0.0799999     -90.0000 
0.00314115     0.152315     -113.199 
0.00161034     0.373631     -15.5241 
0.00270826     0.252982      108.435 
-0.00303700     0.280713      85.9144 
0.00102086     0.312410     -50.1944 
0.000412339     0.223607      100.305 
0.000328518     0.715542     -63.4349 
0.00168060     0.200000      53.1301 
0.00159934     0.354401     -16.3895 
0.000796514     0.442719     -71.5651 
-0.00117098     0.164924      14.0363 
-0.000513041     0.101980     -78.6901 
7.78066e-05     0.438634     -43.1524 
-0.000319262     0.828010     -52.8533 
3.63523e-05     0.260000      112.620 
0.00600875      2.27772     -106.844 
0.00529548      2.25858     -106.991 
0.000157416      2.29120     -106.220 
0.00236202      2.31041     -106.082 
0.000278298      2.23946     -107.140 
0.000660234      2.22639     -107.784 
-0.00850848      4.14343     -59.2260 
0.00146123      2.10950     -31.4296 
-0.00184814      5.60742     -104.036 
0.00255731      4.38730      164.126 
0.00143660      4.34336      164.236 
0.00220702      2.12659     -31.1486 
-0.000374279      4.60721      173.770 
-0.00254693      4.62709      173.797 
-0.00411749      4.27612     -143.559 
0.00319166      5.86491     -87.6547 
-0.00290141      2.94054      147.499 
0.00174056      1.59700     -157.932 
0.000709793     0.873613      74.0546 
-0.00428095      3.76133     -1.52346 
-0.00122110      4.02139     -79.9755 
-0.000967075      3.54006     -22.9436 
-0.00103794      5.59142     -146.083 
0.00144972      1.57848     -157.659 
0.00217752      3.95140      140.751 
-0.000419528      2.28674      50.3227 
-0.00309782      4.70017     -90.4876 
-0.000418824      3.08992      103.856 
-0.00659159      5.60261     -103.838 
0.00205582      2.76029      89.1697 
-0.00483628      7.27720     -54.1694 
-0.00530818      6.02332     -114.523 
0.00137697      4.12146      56.0786 
-0.00302010      3.06575      103.583 
-0.00144496      2.27403      50.7106 
0.00196236      3.76643     -56.4787 
0.00178078     0.887694      75.6507 
0.00292097      3.19230     -36.0802 
-0.000265382      4.63871     -44.6506 
0.00237569      4.90750      45.4953 
-0.00268973      6.63340     -44.1449 
-0.00312751      3.54790     -23.2410 
-0.00110547      4.62450     -44.8248 
0.00276805      6.59312     -84.2548 
0.00209824      4.53982     -135.535 
0.00289847      4.22909     -35.5692 
0.000840527      3.06757     -124.104 
0.00386319      2.08096      76.0973 
0.00144825      4.44855      28.7544 
0.00225419      3.10413      92.9546 
-0.00120665      4.21900     -148.570 
-0.00191780      3.90692      47.4896 
-0.000927372      4.02492     -79.6952 
-0.00545390      2.03666     -125.407 
0.00165574      4.76038      174.697 
-0.00480650      6.87727     -125.770 
-0.00433810      3.24228     -137.750 
0.00280742      4.76092      149.449 
-0.000556587      5.10004     -167.544 
-0.000578983      4.87943     -168.414 
-0.00345456      6.54877     -64.6871 
-0.000231395      5.90268      32.8285 
0.00149951      1.81373      41.4237 
-0.00290992      1.97717      172.444 
0.00124285      5.45575     -158.043 
-0.00111880      5.19065      14.7323 
-0.00379610      6.13984     -58.5881 
0.00105811      3.44401      104.117 
0.00136132      4.91907     -98.8879 
-0.00114284      3.00466      59.1671 
-0.00184696      5.40496     -20.5809 
0.000540066      2.07171     -167.171 
-0.00192309      1.54635     -95.1944 
-0.00371771      4.86391     -168.136 
-0.00146056      4.59622     -44.8237 
-0.000509789      4.48004     0.255783 
-0.000916415      2.91294      147.619 
0.00169501      3.81293     -125.608 
0.000212056      1.58959     -158.600 
0.00126012      4.40654      164.197 
0.00188273      3.63736      98.2192 
0.00309506      3.73872      153.298 
0.00109121      4.12698      56.4640 
-0.000907352      5.01199      24.5196 
-0.000206646      5.90871      32.5604 
0.00194188      4.06546      166.921 
-0.00266274      3.00832      127.708 
0.000204352      3.78550      114.669 
0.00200871      5.10286     -172.569 
0.000608141      2.78690     -136.454 
0.00115436      2.70414     -53.7234 
0.00205569      5.43323     -149.470 
-0.00280965      3.61796     -174.289 
-0.00319708      2.14849      151.049 
-0.00104650      4.70038     -90.7314 
0.00138222      4.47182     -162.294 
-0.00310025      4.42217      160.172 
-0.00141886      5.54707     -27.9510 
-0.000674068      2.41495      153.435 
0.000739938      5.71318     -60.6532 
0.000102493      3.75899      114.520 
-0.00294266      2.60000      36.8699 
0.000657187      3.92326      140.793 
0.00124239      3.20581     -99.6974 
0.000101265     0.882950      76.9081 
0.000295727      2.08691     -167.829 
0.00464650      4.92179      45.6585 
0.00177275     0.874757      100.539 
0.000199292      2.77316     -136.753 
0.000458176      3.05103     -124.315 
-0.00477406      5.58469     -155.454 
0.000986242     0.898221      78.4399 
0.000918784      6.68757     -106.863 
-0.00136746      3.39411      171.870 
0.00284477      4.45048      164.090 
-0.00120488      3.92046      47.2741 
-0.00132417      3.54141      81.2292 
-0.000658211      4.02204      147.179 
0.00138407      5.42859     -110.037 
0.00146419      2.76210     -138.229 
0.000283784      5.27795      40.3894 
0.00107266      7.96196     -50.9131 
0.000378453      5.40270     -25.9011 
-0.00445166      1.81516      161.365 
0.00333969      6.81155     -108.488 
0.000967816      4.24500      141.888 
9.62063e-05      2.44965     -103.696 
-0.000714445      5.27219      28.8013 
0.00330955      5.78564     -106.054 
0.00167530      5.68795      147.931 
0.000879191      3.09438      8.54908 
0.000444306      3.08318      92.6026 
-0.000185961      3.99344     -20.5225 
0.000278005      2.46909     -103.586 
-0.00416472      2.37192      24.4040 
0.00328740      4.38634     -43.1524 
9.39101e-05      3.27200      94.9091 
0.000858091      3.01569     -111.801 
-0.000526617      3.20156      104.470 
-0.000613412      3.39600      164.982 
-9.32135e-05      3.99440      147.265 
-0.000415783      2.94109     -70.9490 
0.00203368      2.13860      24.8874 
-0.000816169      5.98191     -120.767 
0.000783394      4.73320      20.2727 
-0.000183777     0.470744      102.265 
-0.000447573      5.00216      24.8231 
-0.00219194      2.76586     -49.3987 
-0.000701710      4.72208     -91.6990 
0.000440197      2.98804     -13.9432 
-0.00137397      2.44180      153.225 
-0.00127490      6.61906     -44.2655 
9.10519e-05      4.90245     -99.1549 
-0.000177583      6.14557     -84.7718 
0.00332358      5.38472     -25.9940 
0.00307223      5.96312      146.630 
0.000344114      5.59089     -115.648 
-0.00126625      4.89326      32.6508 
-0.00298094      4.28042     -143.933 
-0.000986314     0.475395      104.621 
0.000668867      1.89029     -60.1799 
0.000898949      3.07766      8.97263 
-0.00121842      4.46004     0.256930 
0.000515262      1.84629     -50.2739 
0.000847690      2.45447     -104.149 
0.000549929      5.50930     -109.290 
0.00205203      2.90331      131.929 
0.00158223     0.593970     -135.000 
-0.00144215      4.93660     -83.0189 
0.000392809      2.76065      88.7546 
0.000662282      5.47430     -158.121 
-0.000346530      3.97759      147.109 
-0.00148232      6.94971     -63.5087 
0.00801739      3.63456      97.9072 
-0.000491568      3.60943     -82.6781 
-0.000169277      4.01920     -20.6895 
0.00170029      3.96590     -17.6126 
0.00159174      2.73211     -53.6334 
-0.00383125      6.03165     -114.696 
0.00146410      7.15592     -135.000 
0.000702496      5.28030      40.0834 
0.00103409      1.82702      41.8940 
0.000169437      3.98502     -111.801 
0.000707940      2.78632     -135.872 
-0.00181506      4.98401      24.9197 
8.50095e-05      3.97397     -112.176 
0.00418219      6.67428     -107.077 
-0.000930327      4.72153     -91.4564 
-0.000911326      2.89607      147.407 
0.000161717      2.16157      22.2936 
-0.00171816      2.48395      93.2310 
-0.000241526      2.32112     -18.5911 
0.000633283      2.74882     -138.540 
0.000240273      3.39506     -124.439 
-0.00133883      4.00525      147.024 
0.000540596      3.03980     -124.004 
-8.29275e-05      5.17131      14.7887 
0.000933485      3.99249     -112.068 
0.00795961      4.92154      45.3293 
-0.00195745      5.67641      142.444 
0.00115875      5.45938      145.146 
-0.000769832      4.81232     -117.204 
-0.000393873      1.20416     -175.236 
0.000985984      3.00746     -13.8514 
-8.20344e-05      5.58358     -92.0527 
0.000234529      3.89513      140.835 
-0.00183033      4.58205     -45.0000 
0.000536221      7.37805     -58.6367 
-0.00266285      4.72038     -90.7283 
0.000596155      5.08476     -177.520 
-0.000924848      3.22093      104.381 
-0.00198486      6.40013     -90.3581 
-0.00153647      7.30512     -54.1341 
0.000956751      1.81813     -50.3558 
-0.000156215      3.65141     -24.5998 
-0.000614196      5.48831     -136.181 
0.00167297      4.17469     -160.697 
0.00168205      2.34401     -53.3256 
-0.000646603      5.18560      14.5186 
-8.02814e-05      3.41532      165.069 
0.00165838      4.70064      132.241 
-0.00248611      2.34649      108.898 
0.000910392      3.68456     -147.863 
0.000235494      7.93383     -50.9342 
-0.000435097      3.52953     -23.3691 
-0.00234496      6.51365     -64.9300 
-0.00336460      3.42707      151.790 
0.000152703      6.36798     -60.4560 
0.00114597      4.22928      141.721 
0.000357008      5.44165     -146.544 
-0.00134352      5.28015      28.5065 
0.00166716      2.60599     -109.269 
-0.00147089      6.92289     -63.5830 
0.00377571      5.79938     -105.810 
-0.00172881      3.43983      164.833 
0.00114949      1.65855     -146.310 
-0.00207901      5.38917     -95.9645 
0.00184228      7.94936     -51.0250 
-0.000363637      1.61320     -42.9904 
