! Center RA: 16 53 52.21668,  Dec: +39 45 36.60881 (2000.0)
! Established model.
! Flux (Jy) Radius (mas)  Theta (deg)  Major (mas)  Axial ratio   Phi (deg) T \
! Freq (Hz)     SpecIndex
 0.0593901   0.00999997     -90.0000 
 0.0460483    0.0100001      180.000 
 0.0190116    0.0141422     -135.000 
0.00391913      0.00000      0.00000 
0.000447798    0.0360555      33.6901 
0.000439882    0.0447213      26.5651 
0.000857407    0.0538516      21.8015 
0.00126547    0.0282842     -135.000 
0.000418618    0.0632456      18.4350 
 0.0309954    0.0728011      15.9454 
0.000408937    0.0360555     -123.690 
0.00119317    0.0424264     -135.000 
0.000768866    0.0500000     -126.870 
0.00254065    0.0565686     -135.000 
0.00232748    0.0640312     -141.340 
 0.0235039    0.0721110     -146.310 
 0.0190359     0.161245      60.2551 
0.00626465     0.166433      57.2648 
0.00110160     0.165529      64.9831 
0.00164691     0.161555      68.1986 
0.00423539     0.162788      79.3803 
0.00427003     0.176918      47.2906 
0.000610298     0.152971      78.6901 
0.00229559      1.02694      157.681 
0.00306354     0.493356      162.300 
0.00162789     0.496488      161.200 
0.00309123      1.01390      157.989 
0.000264516     0.478017      164.219 
0.000655954     0.447214      169.695 
0.000202787     0.499800      160.115 
0.000268772     0.503289      159.044 
0.000114165     0.516236      158.405 
0.000467756     0.506952      157.989 
0.000347353     0.520000      157.380 
0.00104950     0.457056      169.919 
0.000422176     0.523928      156.371 
3.66604e-05     0.987927      158.629 
7.00241e-05     0.974987      158.962 
5.22199e-05      1.04389      156.873 
0.000302516     0.514782      155.925 
0.000112299     0.962081      159.305 
0.000138978      1.05702      156.588 
5.86739e-05     0.949210      159.656 
0.00140411      1.02078      145.376 
0.00171213      1.10436      125.417 
0.00221232      1.01514      145.840 
0.00741219    0.0200000      180.000 
0.00137555     0.528015      127.304 
0.000126185     0.490408      163.413 
8.31121e-05     0.475395      165.379 
0.000607273     0.472969      166.551 
0.00117954      1.09859      124.992 
0.000363785     0.536004      126.656 
0.000274582     0.482701      166.827 
0.000440867      1.00955      146.310 
0.000109069     0.497695      157.557 
0.000770589     0.784920      124.095 
0.00275627     0.354683      139.574 
0.000965499     0.790569      124.695 
0.000153885     0.776209      128.199 
0.000407183     0.793221      123.690 
0.000201380     0.782432      128.774 
0.00373278     0.240832     -138.366 
7.32910e-05     0.259422     -152.447 
0.000832594     0.264008     -155.376 
0.00120413     0.269258     -158.199 
4.09734e-05     0.291204     -164.055 
0.000562177     0.774661      129.237 
0.000540212    0.0300000      180.000 
0.000285733     0.361248      138.366 
0.000265215     0.367967      137.203 
3.60183e-05     0.298329     -166.430 
0.000225243     0.314006     -170.838 
7.54459e-05     0.508035      126.193 
0.000691326     0.242074     -141.710 
0.000312913     0.768375      128.660 
0.00490551     0.281603     -163.496 
3.17176e-05     0.288617     -165.964 
7.26255e-05     0.760592      129.130 
5.56715e-05     0.558032      126.254 
0.00165210      1.45671      135.556 
0.00173792      1.47085      135.551 
0.00126076      1.44959      135.279 
0.00546631    0.0316228     -108.435 
0.000715756      1.47801      135.822 
0.000564668     0.244131     -145.008 
0.00125179      1.49241      136.357 
0.000761511      1.37295      132.639 
0.000127958      1.49967      136.621 
0.000150382      1.50695      136.882 
0.000196840      1.51427      137.141 
0.000528614      1.52161      137.397 
0.000856314      1.38033      132.357 
0.000977427      1.52899      137.651 
6.44961e-05     0.236008     -143.616 
0.00208808     0.364006      142.815 
0.00163903      1.01789      146.622 
0.000301501      1.04278      155.647 
5.73263e-05     0.712180      128.157 
8.07593e-05     0.720069      127.666 
0.000161923      1.13225      125.655 
0.000284456     0.706045      127.519 
0.000943353      1.02956      155.925 
0.000786543      1.15209      126.174 
3.00447e-05     0.622013      126.501 
8.47377e-05     0.608030      126.304 
0.000302745     0.483011      152.904 
0.000861115     0.356090      141.843 
4.01121e-05     0.734098      127.807 
0.000368236     0.594054      126.098 
0.000259038     0.742024      127.333 
0.000569915     0.600000      126.870 
0.000182358     0.911811      158.782 
0.000728614      1.00404      146.785 
0.00149524     0.348282      140.826 
0.000833614     0.915478      158.199 
0.000246079     0.748131      127.942 
0.000231065      1.20420      127.917 
7.67755e-06     0.362353      140.599 
0.000395182     0.494975      171.870 
0.000531252     0.506360      170.910 
0.000911847     0.485077      171.703 
0.00151607     0.815966      160.677 
8.35079e-06     0.626498      171.741 
0.000272356     0.625140      172.648 
7.99009e-05     0.463897      172.569 
4.51923e-05     0.453982      172.405 
0.000271643     0.432897      173.367 
0.000240637     0.779295      171.142 
0.000720446     0.473814      172.725 
0.000120024     0.452769      173.660 
0.000469363     0.431857      174.685 
2.95991e-05     0.623939      173.558 
0.00179107     0.370540      86.9060 
0.000475923     0.736003      126.714 
0.000802188     0.380132      144.638 
0.000122237     0.518652      123.996 
0.000163220     0.750000      126.870 
0.000149917     0.504777      123.690 
2.81797e-05     0.744043      126.254 
0.000390286     0.758024      126.416 
0.000410588     0.510392      124.624 
0.000150386     0.372022      143.746 
0.000161735     0.766094      125.972 
8.40983e-05     0.496488      124.330 
0.00134460     0.360555      86.8202 
0.000702598     0.361248      85.2364 
0.000940752     0.482597      124.019 
0.000166476     0.764003      127.020 
0.000625040     0.772010      126.573 
-0.00104853      4.28664     -122.133 
-0.00122441      4.00839      53.9306 
-0.000342371      4.99316      101.085 
0.00130934      4.15589     -62.0167 
-0.000907984      5.30891      101.077 
-0.000779493      4.99124      100.972 
-0.000992400      6.00483      118.443 
0.000955867      7.81181      128.660 
0.00120602      2.28300      15.4972 
-0.00131767      4.28133     -122.020 
0.000100823      2.37245     -127.981 
-0.000895428      7.17432      143.673 
0.000870462      2.37861     -128.171 
-0.000930423      5.23259     -153.925 
-0.00116891      3.99296     -29.0685 
-0.00103972      5.98400     -162.595 
0.000449806      5.56044      179.279 
0.000508859      1.71843      58.8075 
-0.00103881      4.01429      53.8152 
-0.000561346      4.42477      30.5640 
0.00142988      4.47756      130.199 
-0.00123429      5.00297      101.063 
-0.000856702      5.31084      101.183 
0.000823238      3.88197     -77.5032 
0.000174426      1.75000     -90.0000 
-0.00111529      1.12272      107.628 
-0.000846842      6.01839      118.481 
0.000529810      4.91187      160.495 
-0.000560725      6.19589     -151.987 
0.000974120     0.657343      76.8094 
-0.000166849      3.01573      57.7328 
0.00215590      1.72363      58.5232 
0.000463700      5.57044      179.280 
0.000491050      1.75003     -89.6726 
-0.000281845      6.78620      129.319 
0.000736895      2.44624     -23.1063 
-0.00122039      6.27492      150.289 
-0.000412175      3.74769     -112.596 
-0.000457191      1.26016     -35.9605 
0.000198095      7.82587      128.671 
-8.12237e-05      5.88154      154.306 
-0.000446598      3.91152      94.3987 
0.000750641      1.39843     -163.379 
0.000589872      4.35332      95.9332 
-0.000194314      3.01887      57.9946 
-0.000615425      3.84906      109.424 
0.000515622      7.18471      145.204 
-0.000534987      5.24157     -153.973 
-0.000757725      2.80045      91.0230 
0.000115898      1.55769      164.358 
0.000939636      5.25681      59.7279 
-0.000496023      4.42832      30.3868 
-0.000190020      3.90080      94.2635 
-7.72871e-05      5.89055      154.348 
-0.000466459      4.01289     -111.642 
-0.00102881      6.79254      129.384 
-0.000584564      5.21231     -147.377 
3.81596e-05      7.19863      145.184 
-0.000473076      4.53296      100.294 
0.000158199      1.94281     -104.608 
-0.000379311      3.51454      168.179 
-0.000712752      5.02109     -124.861 
0.000557612      2.29264      15.4305 
0.000284896      4.80308      116.458 
-0.00133424      2.31458     -119.223 
-0.000216303      5.90390      154.303 
0.000317215      7.59634      143.673 
0.00153689      2.02921     -119.850 
0.000145671      1.52611      164.416 
-0.000144795      3.01359      58.1558 
-0.000461070      1.81000      0.00000 
-0.000160556      6.63090      125.176 
-0.000106188      1.20304      76.5413 
0.000309425      1.32231      7.82371 
0.000137184      2.45025      167.268 
0.000269046      4.89911      160.566 
0.000142752      5.34113      108.672 
-3.61539e-05      5.66316     -139.871 
-7.14690e-05      6.00574     -139.254 
0.000819125      5.61416      167.449 
0.00105404      6.04842      156.105 
0.000555457      1.93569     -104.970 
0.000474772      4.41823     -120.163 
-0.000382010      4.27889     -30.9408 
0.000104113     0.710633     -39.2894 
-0.000348021      5.20693     -147.470 
-0.000343897      5.66438     -140.013 
-0.000477992      3.71571     -50.5696 
0.000103519      1.50416      164.578 
0.00126162      5.32846      108.605 
-0.000409254      6.00680     -139.388 
6.81089e-05      7.83212      128.728 
-0.000232063      3.01684      58.4174 
3.48154e-05      2.38481     -128.360 
0.00103651     0.655134      77.6609 
0.000294587      1.38924     -149.744 
-0.000102407      1.25208     -36.2292 
-0.000194550      5.86331     -146.689 
-0.000323061      3.59227      36.1681 
-0.000164399      5.91291      154.345 
0.00131012      3.87005     -77.6157 
-0.000132360      1.80000      0.00000 
0.000247450      3.25730      161.009 
-0.000317229      2.44632     -26.9840 
0.000280112      5.58044      179.281 
-6.58351e-05      7.18238      143.720 
0.000539156      3.87001      89.8519 
0.000165132      1.48223      164.745 
-0.000257863      3.90006      94.1170 
0.000192114     0.718401     -38.7844 
-0.000826309      4.75303      57.9818 
-9.62906e-05      6.18706     -151.944 
-0.000312854      5.53119      58.3789 
-9.85206e-05      2.00202      17.4394 
-0.000224826      1.23810     -36.1294 
0.000425942      6.03013      142.750 
-0.000629799      4.00170     -28.9990 
-0.000268772      1.19331      76.4296 
-0.000532173      4.00360     -111.695 
-0.000660683      1.11319      107.784 
-0.000159665      5.15873      123.536 
0.000275695      4.79864      116.351 
-9.45682e-05      3.37516      140.651 
0.000357314      3.57174      43.7522 
-6.26409e-05      5.97445     -162.566 
0.000298202      7.57431      143.644 
-0.000660778      4.42634      175.075 
-0.000419574      3.83631      109.332 
-0.000337149      1.99552      17.7994 
-0.000907101      2.30972     -119.006 
-6.32203e-05      3.75155     -112.737 
-9.32359e-05      3.07519     -169.129 
6.05241e-05      2.38648     -128.022 
0.000126008      1.46031      164.917 
0.000528965      2.29965      15.1240 
9.32072e-05      2.64705      83.4925 
-0.000746277      3.50852     -73.2695 
9.25919e-05      1.03600     -143.241 
0.000155380      5.99611      130.197 
0.000321936      1.33222      7.76517 
6.28958e-05      3.01359      66.3271 
0.000357724      3.27947      160.957 
9.40536e-05     0.572713     -77.9052 
0.000121513      5.30800      53.1949 
0.000149221      1.67147      77.2109 
-0.000149437      3.11520      93.3125 
3.10147e-05      2.22194     -47.1886 
-0.000270571      7.85446      138.251 
-9.10664e-05      5.22802     -153.778 
-0.000347574      4.28981     -121.949 
0.000394747      3.45579      121.390 
9.05376e-05      3.13982      154.333 
-0.00101253      4.08148     -88.4556 
-0.000267177      1.23004     -36.4041 
3.07442e-05      1.45066      164.814 
-0.000147837      3.63662     -124.695 
0.000207976      4.88636      160.638 
-0.000119636      5.92193      154.387 
0.000729774      6.00901      101.422 
0.000119226      3.00958      66.5014 
-0.000469016      3.51810     -36.4465 
-0.000173968      3.02015      58.6784 
0.000391433      3.52626      160.794 
0.000146349      2.43830      167.446 
-0.000830725      4.99680      162.290 
0.000419984     0.570701     -78.8870 
0.000176752      1.38062     -149.534 
-0.000164741      2.56383     -176.870 
-0.000502307      5.17259      123.567 
0.000149128      1.43840      165.094 
0.000115731      2.20780     -47.2026 
3.02524e-05      4.46346      130.184 
-0.000348786      5.41646     -44.8504 
3.02345e-05      1.67905      77.6192 
-0.000224112      6.03673      118.603 
0.000331708      5.98966      130.124 
0.000213220      2.64821      83.2775 
0.00193906      3.94738     -84.6216 
-0.00155168      3.26696     -98.6262 
0.000138308      5.07720      98.6089 
-0.000475446      3.58420      36.2624 
0.000194467     0.704344     -38.6598 
0.000116104      4.19734      150.137 
-0.000192105      3.91077      94.2526 
-0.000114336      3.50475      168.145 
0.000645559      4.18369      161.608 
0.00176538      4.46240      59.1243 
-0.000225249      5.64032      90.6095 
0.000261323      6.54109     -149.397 
-5.84137e-05      2.43288     -26.8810 
-8.58844e-05      3.06728     -168.910 
-0.000259877      2.55384     -176.858 
-0.00106988      1.66721      169.634 
-0.000138503      5.23699     -153.826 
-2.92204e-05      5.04754      171.340 
-0.000903431      1.80003     0.318309 
0.000666097      1.82395      176.228 
0.000332890      1.41651      165.277 
-0.000141225      1.65738      169.571 
-0.000275334      2.09117      38.7882 
-8.36947e-05      5.85496     -146.636 
0.000191165      3.13081      154.253 
-0.00108590      7.84700      138.203 
-0.000637894      2.31579     -83.3046 
0.000775699      5.25178      59.8221 
0.00221584      6.12510      177.661 
-8.53667e-05      1.98600      17.8876 
0.000350436      1.68241      111.991 
-0.000162946      2.39102      128.548 
-0.000139532      5.93094      154.429 
0.000135001      2.82800      143.049 
0.000161950      3.00443      66.2505 
-0.000958566      2.42396     -26.9879 
-0.000854605      5.01889      162.251 
5.65320e-05      4.89579      160.677 
2.84551e-05      4.35437      96.0641 
-0.000194230      1.22201     -36.6824 
-5.58696e-05      5.53644      58.2908 
8.26361e-05      5.00289      91.9473 
0.000214166      4.79421      116.244 
8.25585e-05      5.31400      53.1085 
0.000709673      4.22019     -163.197 
0.000162430      1.72699      58.9793 
0.000110087      1.37201     -149.323 
0.000323207      4.18369      150.187 
-8.20107e-05      3.33318      47.3100 
0.000288097      4.48402      130.296 
-0.000143944      4.53118      100.169 
-8.25698e-05      1.98910      18.1617 
0.000108611      3.94833     -84.4771 
-0.000159866      5.00106      100.950 
0.000261702      4.34337      95.9469 
-0.000152497      1.90515      63.1660 
-0.000236595      3.63094     -124.565 
0.000264276      4.88305      160.749 
0.000242483      2.46856     -23.1376 
0.00142668      6.60867      52.3151 
-2.75667e-05     0.655210     -164.055 
-2.75472e-05     0.688186      144.462 
0.000469204      3.56770     -112.756 
7.87391e-05      1.66928      77.5457 
-0.000284431      4.09665      73.1132 
-0.000215281      3.11464      93.1288 
0.000107677      5.46527      92.5169 
-0.000158222      3.82357      109.241 
-5.43821e-05      4.27032     -31.0098 
-0.000249953      6.03954      173.440 
-7.15769e-05      5.34914     -160.108 
-0.000363322     0.696348      144.941 
-0.000249895      5.89936      107.053 
-0.000361760      1.19101      76.8972 
5.40096e-05      3.22121     -16.4096 
0.000146878      2.43614      167.675 
0.000411875      7.72592      141.305 
-0.000294788      3.02352      58.9387 
0.000223178      5.59044      179.283 
-7.96328e-05      5.19711     -149.982 
0.000471001      6.37913      119.901 
-0.000889025      2.41052     -26.8839 
0.000103206      4.86806     -139.833 
0.000483321      2.29000      15.1893 
-0.000311470      1.21400     -36.9643 
-0.000257201      1.97960      18.2519 
0.000273080      6.22866      78.7983 
-0.000129766      5.93997      154.470 
-0.000171364      3.05747     -168.874 
-0.000434714      2.46435      80.4230 
-0.000156967      6.12246      80.0300 
-0.000202690      5.34315     -159.971 
-0.000640379      4.99490     -40.2902 
-0.000909368      3.25859     -98.8264 
-5.01914e-05      1.92899      118.824 
7.85954e-05      3.20002     -22.7989 
0.000154265      1.36341     -149.108 
7.89524e-05      3.76431     -163.009 
0.000446505      1.40431      165.568 
-5.24504e-05      5.64022      90.5079 
7.70793e-05      5.00324      92.0618 
0.000345820      5.93137      150.063 
-0.000219641      4.25660     -30.9638 
-0.000428908      5.85212     -146.500 
0.000124408      6.03810      142.807 
5.19911e-05      4.06596      176.898 
0.000634160      3.23080     -16.3595 
-0.000173895      3.70937     -50.6889 
-7.04980e-05      5.31279      101.289 
0.000454122      5.46484      92.4121 
-0.000163543      3.33997      47.1840 
-0.000127198      6.05030      118.641 
-7.63621e-05      1.85076     -148.027 
-2.58627e-05     0.645601     -163.811 
4.98210e-05      3.28892      161.014 
-0.00128069      2.09898      38.6172 
0.000413677      2.02556     -120.236 
0.000144964      1.35074      7.23024 
5.07796e-05      4.47558      168.138 
-0.000241707      5.65032      90.6084 
-0.000323074      4.30847     -157.482 
0.000100546      3.75474     -162.965 
0.00123704      1.31848     -22.2856 
5.04041e-05      2.19367     -47.2168 
2.56350e-05      5.31202      52.9575 
0.000309413      4.05597      176.891 
0.000118412      7.55227      143.616 
0.000491127      3.26676      161.066 
-0.000285840      6.79889      129.450 
-0.000263020      6.12420      79.9378 
-0.000775976      1.20603     -37.2500 
-0.000191636      5.20578     -150.037 
-4.99900e-05      2.38481      128.360 
0.000371251      3.20924     -22.7297 
0.000391644      6.31276      124.219 
0.000880647      3.83565     -98.8484 
-0.000413930      3.38080      175.419 
-0.000202792      4.01214      53.6156 
-0.000387240      4.01530     -29.0546 
-0.000234059      4.07044      142.286 
0.000361236      3.14417      154.168 
7.45749e-05      5.09902      131.820 
-0.000495882      3.67049     -15.3236 
0.000167245      1.72887      58.2405 
4.91409e-05      4.41322     -120.051 
9.64140e-05     0.568858     -79.8753 
0.000143290      3.50408      160.841 
0.000262504      3.45059      121.249 
0.000623722      4.87032      160.821 
-0.000215195      5.94899      154.512 
-2.48334e-05      5.36004      165.964 
4.92657e-05      4.80318      116.192 
7.28385e-05      7.17079      145.224 
-0.000190946      6.05510      118.724 
0.000120741      1.35484     -148.891 
-9.66327e-05      1.55081      125.022 
-4.79470e-05      3.82029      109.099 
0.000242978      5.01360      92.1719 
0.000224813      4.41977     -111.224 
-0.000319293      3.51216     -36.3152 
-4.86859e-05      1.84228     -147.863 
-0.000612683      5.34792      166.042 
4.85176e-05      4.87295     -52.0013 
0.000120384      3.28320      60.2335 
-0.000254706      3.62527     -124.435 
0.000388991      5.08490      131.811 
9.33325e-05      4.46374      168.237 
-0.000195014      2.39885      128.399 
4.74517e-05      3.57146      43.9790 
9.55988e-05      4.54793     -168.715 
0.000194951      4.86042     -139.757 
-0.000522075      5.17650      45.7827 
0.000244279      3.74813     -162.774 
-0.000283756      1.97327      18.6186 
-0.000187171      4.09375      73.2471 
-0.000118017      1.11018     -54.1623 
0.000291913      4.79877      116.084 
0.000223708      5.98322      130.051 
