! Center RA: 04 18 21.28000,  Dec: +38 01 35.76000 (2000.0)
! Established model.
! Flux (Jy) Radius (mas)  Theta (deg)  Major (mas)  Axial ratio   Phi (deg) T \
! Freq (Hz)     SpecIndex
0.00677513     0.271662      96.3402 
0.000333602     0.270740      94.2364 
0.000460841     0.270184      92.1211 
0.00111976     0.270000      90.0000 
0.000919532     0.270184      87.8789 
0.000237896     0.270740      85.7636 
0.00290519     0.198493      40.9141 
0.000508271      7.21358      63.5770 
0.000396508      5.12118      51.8993 
0.000844802      7.20913      63.6482 
5.59291e-05      5.36824      64.8670 
0.000510658      5.11502      51.9875 
0.000408779      5.37249      64.7705 
9.63610e-05      7.21810      63.6834 
0.000714604      7.20361      61.6561 
0.000171655      5.46117      69.6404 
0.000372804      5.46466      69.5421 
0.000512884      5.10886      52.0758 
0.000661252      7.38436      57.3860 
0.000396892      5.49365      60.6820 
3.79889e-05      7.21367      63.7546 
0.00142391      7.19481      61.6183 
0.000716899      4.98258      59.8843 
0.000156705      5.45180      69.6039 
0.000125282      5.49855      60.5912 
6.06875e-05      7.20925      63.8259 
9.20171e-05      5.83484      61.5463 
0.000217606      7.19957      61.5483 
0.000117849      5.83961      61.4600 
0.000116716      7.38976      57.3207 
0.000193387      5.84439      61.3739 
5.38059e-05      4.93584      66.6033 
0.000110039      7.39818      57.3625 
0.000106660      5.45529      69.5054 
0.000229549      7.40357      57.2973 
0.000177834      5.84919      61.2879 
2.46767e-05      7.20944      64.0036 
9.35049e-05      5.45880      69.4071 
0.000528240      7.41199      57.3391 
0.000139187      5.85400      61.2021 
7.12784e-05      6.66323      61.3964 
0.000304924      6.65925      61.2797 
0.00161306      6.66406      61.2043 
0.000257118      4.99123      59.9419 
0.000316230      7.42041      57.3808 
0.000889889      6.66888      61.1290 
0.000104830      5.46233      69.3089 
0.000127557      5.85882      61.1164 
2.12586e-05      7.41502      57.4458 
2.05558e-05      5.35014      64.7761 
9.97252e-05      5.86366      61.0308 
0.000516798      6.67372      61.0538 
1.99213e-05      7.19637      61.2625 
0.000128774      5.35441      64.6793 
5.77343e-05      5.46587      69.2108 
0.000133132      7.19725      61.0846 
9.41835e-05      5.86851      60.9454 
9.00375e-05      5.45297      69.2718 
1.82746e-05      7.20295      61.8339 
0.000150805      7.19820      60.9067 
0.000105864      5.87337      60.8601 
3.53019e-05      7.20706      61.9415 
0.000405611      7.52758      61.2559 
0.000239091      7.21119      62.0490 
0.000127895      5.45652      69.1736 
0.000114309      5.87825      60.7750 
0.000252207      7.41739      57.2741 
4.47066e-05      4.98623      60.0413 
0.000117615      5.86952      60.7273 
3.03239e-05      5.34966      64.5367 
2.93109e-05      6.91868      62.9164 
0.000324276      7.21535      62.1564 
0.000512613      7.51881      61.2193 
4.34419e-05      7.42581      57.3158 
0.000206762      7.43121      57.2509 
6.92732e-05      5.44717      69.1362 
1.42359e-05      7.20209      61.0149 
2.70328e-05      7.20101      64.3246 
0.000162556      5.11676      52.1447 
0.000126335      7.43663      57.1861 
1.27748e-05      7.20600      61.1230 
3.68721e-05      5.43783      69.0987 
6.20112e-05      7.51487      61.1157 
0.000465789      7.51005      61.1825 
0.000198748      7.44205      57.1214 
1.20175e-05      7.22003      62.0862 
2.34114e-05      5.44141      69.0003 
8.09255e-05      7.50612      61.0788 
3.43319e-05      5.90208      58.0872 
0.000329285      7.50129      61.1457 
1.13622e-05      5.43207      68.9625 
0.000370918      6.67764      61.1704 
1.13231e-05      5.34229      65.2099 
4.49801e-05      5.43567      68.8641 
4.49098e-05      5.56389      55.7673 
1.12523e-05      7.44748      57.0568 
1.12559e-05      5.33394      65.4049 
0.000235509      7.49253      61.1088 
5.59955e-05      4.90360      58.2547 
1.12003e-05      7.50297      61.7613 
1.11912e-05      5.43928      68.7659 
1.11992e-05      7.45588      57.0986 
1.11986e-05      7.49825      61.8286 
1.11898e-05      5.33475      65.6449 
0.00102417     0.192354     -152.102 
0.000701921     0.201246     -153.435 
0.000127332      2.89000      61.9275 
0.000123910      2.89472      61.7529 
0.000236737      2.90826      61.6725 
0.000113927      2.89946      61.5788 
0.000111571      2.91302      61.4994 
0.000314277      2.91781      61.3268 
9.82562e-05      2.92262      61.1548 
9.57662e-05      2.92746      60.9834 
9.30686e-05      2.93232      60.8125 
0.00146251      2.95083      60.5682 
0.000780089      3.61780      57.7596 
0.00236278      3.62315      57.6258 
0.00177381      2.25488      56.0280 
0.00118059      2.94212      60.4725 
0.000318122      3.62626      57.8439 
0.000445754      3.65531      60.1385 
0.000391632      3.62008      57.4074 
0.000837394      3.65034      60.2746 
7.07706e-05      2.63956      59.7435 
0.00117118      2.26049      55.8178 
0.000333230      2.63093      59.6338 
0.000469207      3.61707      57.1886 
0.000632707      3.64539      60.4111 
0.000289777      3.61411      56.9695 
0.000401726      2.26612      55.6087 
0.000227926      3.61957      56.8368 
0.000152435      3.64047      60.5479 
9.32114e-05      3.61670      56.6175 
0.00117721      7.29452      56.7456 
0.00135555      7.30288      56.7887 
0.000305101      7.30001      56.6800 
0.000585618      7.36436      55.5115 
0.000256576      7.29741      56.8543 
3.52673e-05      7.29195      56.9201 
0.000131988      7.30033      56.9630 
0.000633569     0.735934      42.7974 
0.00175955     0.571402      57.1443 
0.00109969     0.563028      56.5922 
0.000550693     0.557584      57.4500 
0.00344401     0.549180      56.8886 
0.00145755      3.31210      65.7565 
0.00213777      3.30800      65.9144 
0.00114998      3.32122      65.8273 
0.000765460      3.49366      64.7552 
0.00114086      3.29888      65.8435 
0.00134278      3.50271      64.8250 
0.00192219      3.28566      65.9313 
0.00110320      3.51177      64.8944 
0.000435080      3.50753      65.0423 
8.33815e-05      3.51660      65.1111 
8.22170e-05      3.51241      65.2590 
0.000239187      3.43913      68.5080 
0.000302820      3.27246      66.0197 
0.000228049      3.43548      68.6631 
0.000365233      3.51602      64.7468 
0.000288441      3.43185      68.8186 
0.000856042      3.27654      65.8600 
0.000337072      3.42825      68.9745 
0.000203084      3.52030      64.5996 
6.52133e-05      3.51127      64.5296 
0.000373924      3.42467      69.1306 
0.000483208      3.51558      64.3825 
0.000343894      3.42112      69.2871 
5.82803e-05      3.29387      65.6136 
0.000166416      3.28064      65.7006 
0.000563263      3.51991      64.2357 
0.000109897      3.29801      65.4554 
0.000212563      3.41760      69.4439 
5.35551e-05      3.32388      64.8998 
0.000205454      3.40473      69.5424 
5.18903e-05      3.32814      64.7439 
0.000101397      3.33242      64.5884 
4.96331e-05      3.26333      65.9484 
9.79122e-05      3.41410      69.6011 
9.70964e-05      3.33672      64.4333 
0.000279524      3.40125      69.7003 
9.36919e-05      3.34105      64.2786 
4.69903e-05      3.24607      66.1988 
0.000178057      3.52892      64.3063 
0.000134568      3.34540      64.1243 
8.81367e-05      3.41063      69.7585 
4.44935e-05      3.24205      66.3605 
0.000333840      3.39779      69.8584 
4.34385e-05      3.34978      63.9704 
4.28386e-05      3.22888      66.4519 
8.44747e-05      3.34079      63.8951 
4.22816e-05      3.52427      64.0893 
0.000640078      3.53327      64.1602 
0.000121736      3.34520      63.7413 
8.06331e-05      3.22490      66.6148 
0.000227710      3.39436      70.0169 
0.000116297      3.34069      63.5116 
0.000369359      3.40718      69.9163 
3.77779e-05      3.21176      66.7077 
0.000285157      3.34516      63.3583 
0.000140064      3.20782      66.8718 
0.000461251      3.22981      73.0799 
0.000394889      3.34966      63.2055 
9.43927e-05      3.19470      66.9662 
2.97253e-05      3.17770      67.2276 
0.000343268      3.40376      70.0744 
0.000343199      3.53764      64.0144 
0.000420807      3.22692      73.2497 
0.000235733      3.16462      67.3244 
0.000278067      3.35418      63.0530 
0.00155249      8.15429      62.3036 
0.000806097      8.14965      62.3659 
0.000214966      8.23022      53.5478 
0.000400715      8.22428      53.6038 
0.000530604      8.54252      53.7606 
0.000359464      7.78701      59.9448 
0.000380880      8.21623      53.5625 
0.000424804      8.16315      62.3363 
0.00107871      7.77836      59.9079 
0.000345383      8.15851      62.3985 
0.000426878      8.22218      53.5064 
0.000297728      8.55058      53.8002 
0.000281763      8.17201      62.3688 
0.000933385      8.55649      53.7462 
0.000205409      8.16737      62.4310 
0.000559263      8.21414      53.4649 
0.000405151      8.18087      62.4013 
0.000521585      7.77473      59.8072 
0.000355017      8.18973      62.4337 
0.000221790      8.20322      62.4041 
0.000337575      8.20611      53.4234 
0.000322443      7.76971      59.8710 
0.000228337      8.56241      53.6922 
0.000267954      8.21209      62.4364 
3.58077e-05      8.22558      62.4069 
1.18704e-05      8.57047      53.7318 
0.000266078      7.78442      60.2734 
0.000170010      8.24530      61.8498 
0.000383934      7.77574      60.2368 
0.000328235      8.25412      61.8826 
0.000358794      8.26294      61.9153 
0.000486421      7.77203      60.1362 
0.000383752      8.27176      61.9479 
0.000211680      7.76336      60.0995 
0.000181902      7.76835      60.0356 
1.44854e-05      8.26707      62.0090 
0.000268624      8.28059      61.9804 
0.000400889      7.75969      59.9987 
0.000193663      8.27590      62.0415 
0.000177573      8.28942      62.0129 
0.000137625      7.75604      59.8978 
1.49854e-05      8.08258      62.3570 
1.40529e-05      8.07794      62.4198 
0.000212852      5.85485      64.3978 
8.28816e-05      5.55018      62.8809 
8.11119e-05      5.85956      64.5282 
8.03187e-05      5.54128      62.8338 
0.000154943      5.86859      64.5702 
0.000115952      5.53239      62.7865 
7.44363e-05      5.52349      62.7391 
0.000110254      5.87763      64.6121 
3.63989e-05      5.51461      62.6915 
7.12236e-05      5.51920      62.5993 
0.000206822      5.88239      64.7418 
6.92174e-05      5.51033      62.5514 
3.38800e-05      5.50145      62.5034 
9.95812e-05      5.25042      60.0656 
0.000340759      6.06092      59.4578 
0.000222935      5.89143      64.7833 
0.000159282      5.24175      60.0111 
0.000180700      5.23310      59.9563 
0.000260839      5.89624      64.9127 
2.92518e-05      5.53347      55.6781 
8.56726e-05      5.22444      59.9014 
8.53067e-05      5.52521      55.6197 
0.000139183      6.06601      59.3764 
0.000108901      5.21943      59.9964 
0.000160395      5.53087      55.5342 
0.000285621      5.90529      64.9538 
0.000298145      6.07462      59.4245 
5.22855e-05      5.21078      59.9414 
0.000148719      5.20578      60.0367 
2.54750e-05      5.52263      55.4754 
0.000145986      5.52830      55.3901 
0.000187606      5.91013      65.0827 
0.000527353      5.01198      65.4804 
6.84871e-05      5.19711      59.9816 
9.17239e-05      5.53399      55.3048 
0.000195170      6.08832      59.3913 
0.000213983      5.91921      65.1234 
8.75232e-05      5.52577      55.2458 
0.000105101      5.18846      59.9264 
0.000143748      5.53147      55.1607 
8.00394e-05      6.09341      59.3104 
0.000211872      5.92828      65.1641 
0.000112858      5.17981      59.8710 
3.90467e-05      5.53719      55.0758 
0.000148808      6.10202      59.3583 
0.000245685      5.52900      55.0165 
0.00143795      5.00289      65.4328 
0.000238521      5.93317      65.2923 
0.000233750      5.53474      54.9316 
0.000296298      6.10712      59.2776 
0.000131271      5.17116      59.8153 
6.00817e-05      5.52655      54.8721 
0.000288605      5.53231      54.7874 
0.000344473      6.52175      60.2115 
0.000246379      5.94225      65.3326 
0.000174904      5.16252      59.7595 
4.28339e-05      5.53809      54.7029 
0.000821734      5.40093      52.0692 
0.000142669      6.11223      59.1970 
1.30933e-05      5.93809      65.4203 
9.96099e-05      5.63773      68.3496 
0.000146633      5.95134      65.3728 
0.000149930      5.16756      59.6637 
0.000359478      6.52672      60.1353 
7.90905e-05      5.64703      68.3870 
7.23359e-05      5.65632      68.4243 
7.02128e-05      6.11736      59.1166 
0.000355321      5.66562      68.4615 
2.83888e-05      5.96044      65.4128 
0.000226710      5.15893      59.6077 
0.000118419      6.10878      59.0684 
0.000268980      6.19564      66.0000 
0.000260793      6.53171      60.0593 
0.000113635      6.11393      58.9880 
3.38467e-05      5.15031      59.5514 
3.36336e-05      6.11908      58.9078 
1.65850e-05      5.52327      55.1015 
0.000895907      16.5153      60.4703 
0.000299990      16.5104      60.5005 
9.01664e-05      16.5823      59.2436 
0.000118608      16.5142      60.5477 
2.92186e-05      16.5874      59.2140 
2.88141e-05      16.5788      59.1963 
0.000722151      16.5093      60.5780 
0.000138493      16.5840      59.1666 
0.000434976      16.5131      60.6252 
5.45307e-05      16.8565      61.9755 
0.000859326      16.8518      62.0055 
0.000155627      16.5805      59.1192 
9.78932e-05      16.5771      59.0718 
0.000291473      16.5822      59.0422 
0.000113719      16.5736      59.0244 
6.51634e-05      16.2648      58.2448 
8.43434e-05      16.5788      58.9948 
6.28851e-05      16.2700      58.2149 
0.000100184      16.2668      58.1664 
0.000112948      16.2636      58.1178 
7.11696e-05      16.2657      58.0394 
0.000663473      16.8471      62.0355 
3.42403e-05      16.2625      57.9909 
5.03826e-05      16.2646      57.9125 
1.63697e-05      16.2615      57.8639 
6.37366e-05      16.2637      57.7855 
4.60422e-05      16.2605      57.7369 
0.000250070      16.5856      59.0896 
1.50241e-05      16.2574      57.6883 
2.95683e-05      16.2628      57.6585 
0.000227801      16.2597      57.6099 
0.000115377      16.2650      57.5801 
1.18333e-05      16.2366      58.4734 
6.76938e-05      17.1396      59.8446 
2.28031e-05      16.2313      58.5035 
1.09832e-05      16.2261      58.5336 
 0.0580149      1.13177      62.0764 
 0.0365666      1.14529      61.8686 
0.00582557      1.15412      62.1027 
0.00285641      1.07824      61.7712 
0.00283256      1.17648      62.1280 
0.00280873      1.05589      61.7360 
0.00278784      1.18533      62.3540 
0.00276488      1.04235      61.9598 
0.00274602      1.19419      62.5766 
0.00805600      1.03354      61.6992 
0.00800328      1.20308      62.7960 
0.00260960      1.02000      61.9275 
 0.0126161      1.21198      63.0121 
0.00257368      1.02474      61.4342 
 0.0216474      1.01119      61.6608 
 0.0270005      1.22090      63.2251 
 0.0170423      1.00240      61.3895 
 0.0118148      1.01597      61.1645 
 0.0175744      1.22984      63.4349 
 0.0125228      1.00722      60.8901 
 0.0172020      1.22540      63.8531 
0.00169574      1.02956      60.9454 
0.00167346     0.993629      61.1134 
0.00326195      1.05679      60.5241 
0.00163109     0.980050      61.3429 
0.00773143      1.23438      64.0577 
0.00159030     0.971287      61.0600 
0.00308596      1.09275      60.3852 
0.00155885     0.957705      61.2940 
0.00153915      1.08407      60.1240 
0.00448307     0.944140      61.5348 
0.00147951      1.10639      60.1909 
0.00713362      1.24338      64.2593 
0.00692168      1.09772      59.9314 
0.00143515     0.935360      61.2429 
0.00545493     0.921791      61.4887 
0.00400219      1.25240      64.4580 
0.00762811      1.11140      59.7435 
0.00503780      1.26574      64.2447 
0.00500564     0.908240      61.7420 
0.00354911      1.27475      64.4400 
0.00680731     0.899443      61.4403 
0.00118954      1.11085      66.6659 
0.00233313      1.10277      59.4817 
0.00114800      1.10693      67.1412 
0.00440853      1.28378      64.6326 
0.00112957      1.11647      59.3003 
0.00220411      1.10309      67.6198 
0.00110378      1.10788      59.0362 
0.00315186      1.12161      58.8610 
0.00209578      1.09932      68.1018 
0.00791149     0.885889      61.6992 
0.00406475      1.29711      64.4227 
0.00199069      1.08632      68.3945 
0.00295035      1.12681      58.4258 
0.00638480      1.30614      64.6121 
0.00370941      1.08268      68.8865 
0.000934893      1.13208      57.9946 
0.00355871      1.14586      57.8356 
0.00266107     0.877097      61.3895 
0.00417978      1.07912      69.3818 
0.00331301     0.872353      61.9661 
0.00327408      1.15122      57.4143 
0.00557077      1.31518      64.7989 
0.00913899     0.863539      61.6543 
0.00445494      1.07564      69.8804 
0.000776523      1.16503      57.2648 
0.000761178      1.15663      56.9969 
0.00290254      1.17047      56.8530 
0.00676827      1.32849      64.5923 
0.00136963      1.18431      56.7124 
0.00453654      1.07224      70.3821 
0.00195763      1.18983      56.3099 
0.00184857      1.20370      56.1779 
0.00406019     0.849999      61.9275 
0.00709371      1.33753      64.7761 
0.00393016      1.05948      70.7099 
0.00174756      1.21758      56.0489 
0.000562623      1.23146      55.9228 
0.000552408      1.22319      55.6603 
0.00159842      1.23709      55.5392 
0.00309159     0.845339      62.5255 
0.00385393      1.05622      71.2220 
0.000515446      1.12605      56.5922 
0.00150305      1.25100      55.4207 
0.00187619      1.26491      55.3048 
0.00639450     0.831865      62.8189 
0.000479146      1.11772      56.3099 
0.00590255      1.34659      64.9574 
0.000886942      1.10386      56.4539 
0.00131425      1.27883      55.1915 
0.00326865      1.05304      71.7371 
0.00242483      1.28456      54.8253 
0.00117234      1.10941      56.0234 
0.00217910      1.29850      54.7188 
0.00640696      1.04995      72.2553 
0.00499463     0.818413      63.1218 
0.00334140      1.35565      65.1363 
0.00102744      1.11503      55.5973 
0.00315942      1.30430      54.3602 
0.00117876      1.10680      55.3048 
0.00198787      1.35148      65.5209 
0.00250465     0.813941      63.7497 
0.00194425      2.79830      66.1830 
0.00135430      1.31015      54.0048 
0.000813264      1.31826      54.2602 
0.00237512      2.79428      66.3706 
0.000522689      1.11252      54.8814 
0.00403989      1.36473      65.3128 
0.000500095      2.79029      66.5587 
0.00332661      1.32412      53.9090 
0.000941645      1.11830      54.4623 
0.000246442      2.78239      66.9366 
0.000244164      2.77462      67.3166 
0.000241774      2.77078      67.5074 
0.000237540      2.76319      67.8905 
0.000235244      2.80236      65.9960 
0.00293505     0.809505      62.8018 
0.000464704      2.75944      68.0829 
0.000231148     0.999999      73.7398 
0.000454945      2.81055      65.6235 
0.000227468      2.75572      68.2758 
0.000664234      2.75203      68.4692 
0.000223099      1.05948      72.4201 
0.000437021      2.81469      65.4381 
0.000626358     0.997246      74.2914 
0.000627772      1.12414      54.0476 
0.000426898      2.74838      68.6631 
0.000423435      2.81886      65.2532 
0.000820711      2.74476      68.8576 
0.000408210      2.83214      65.1542 
0.000398432      1.06902      72.5820 
0.000778944      2.83635      64.9709 
0.000967613      2.74117      69.0525 
0.000574914      1.11606      53.7461 
0.00218822      1.33810      53.8152 
0.000886436     0.994585      74.8459 
0.000187325      2.84060      64.7881 
0.000368767      2.64093      65.8613 
0.00305288      1.37383      65.4870 
0.000903835      2.74696      69.3219 
0.000363027      2.84965      64.8738 
0.00229624     0.800624      62.4747 
0.000692114      1.12201      53.3344 
