! Center RA: 04 33 11.09553,  Dec: +05 21 15.61921 (2000.0)
! Established model.
! Flux (Jy) Radius (mas)  Theta (deg)  Major (mas)  Axial ratio   Phi (deg) T \
! Freq (Hz)     SpecIndex
  0.296726    0.0223607     -116.565 
 0.0834965    0.0141422     -135.000 
 0.0325810   0.00999997     -90.0000 
0.00652735    0.0721111     -123.690 
0.00963280      0.00000      0.00000 
 0.0479472    0.0860232     -125.538 
 0.0121432    0.0141422      45.0003 
 0.0195460    0.0282842      45.0001 
 0.0612063    0.0360555      56.3100 
 0.0590233    0.0806226     -119.745 
 0.0283352    0.0316228      71.5651 
 0.0249131    0.0761577     -113.199 
 0.0153114    0.0300000      90.0000 
 0.0143709    0.0728011     -105.945 
0.00889848    0.0316228      108.435 
0.00736451    0.0707107     -98.1302 
0.00607566    0.0360555      123.690 
0.00671331    0.0700000     -90.0000 
0.00471110    0.0424264      135.000 
 0.0119708    0.0707106     -81.8699 
0.00355768    0.0500000      143.130 
0.00338366    0.0583095      149.036 
0.00411780    0.0728011     -74.0546 
0.00243100    0.0670820      153.435 
0.00387668    0.0761577     -66.8014 
0.00386217    0.0761578      156.801 
0.00365515    0.0806225     -60.2551 
0.00293061    0.0854401      159.444 
0.00279884    0.0948683      161.565 
0.00411071    0.0860232     -54.4623 
 0.0154123    0.0761577      23.1986 
 0.0311955     0.104403      163.301 
0.00257196    0.0921954     -49.3987 
 0.0271973    0.0989949     -45.0000 
 0.0127167     0.122066     -145.008 
 0.0639580     0.184391     -102.529 
0.00873405     0.231948     -97.4314 
0.00351050     0.174642     -103.241 
0.00368318     0.167631     -107.354 
0.00193004     0.170880     -110.556 
 0.0104150     0.230868     -94.9697 
0.00268836     0.165529     -115.017 
0.00509921     0.170000     -118.072 
0.00395440     0.174929     -120.964 
0.00752079     0.230217     -92.4896 
 0.0187631     0.180278     -123.690 
0.00619817     0.230000     -90.0000 
0.00504162     0.230217     -87.5105 
0.00218180     0.230868     -85.0303 
0.00625884     0.838153     -107.354 
0.000588191      1.08688     -115.622 
0.000382389      1.18680     -106.144 
0.00163799      1.08259     -115.145 
0.00584589      1.18962     -106.607 
0.000869561     0.841190     -108.004 
0.000673329      1.07838     -114.664 
0.00125083      1.07424     -114.179 
0.000314186     0.844334     -108.650 
0.00173553     0.460435     -87.5105 
0.000288911     0.847585     -109.290 
0.000714933      1.07019     -113.691 
0.00102430     0.709366     -111.501 
0.00582280     0.460977     -86.2686 
0.000399006     0.850941     -109.926 
0.000532771      1.06621     -113.199 
0.000128070      1.05849     -112.203 
0.000126013      1.06231     -112.703 
0.000369246     0.854400     -110.556 
0.000124253      1.05475     -111.701 
0.000243041      1.04403     -110.171 
0.000913267      1.40456     -109.983 
0.00140270      1.04062     -109.654 
0.000677967     0.857963     -111.181 
0.00105046      1.19252     -107.067 
0.00122835     0.713092     -112.249 
0.00286273      1.40118     -109.599 
0.000106622      1.10059     -118.195 
0.000506543     0.861626     -111.801 
0.000100409      1.10535     -118.652 
0.00314254     0.878465     -112.770 
0.000187302      1.11018     -119.105 
0.000803468      1.19549     -107.526 
8.86437e-05      1.11508     -119.554 
8.54011e-05      1.12004     -119.999 
0.000162816      1.12508     -120.440 
0.000619934      1.19854     -107.981 
0.000153780      1.13018     -120.877 
0.000151416     0.715891     -114.775 
0.000144835      1.13534     -121.310 
0.000143879     0.720139     -115.498 
0.000605769      1.20167     -108.435 
0.000267546      1.15434     -121.900 
6.89741e-05     0.728972     -116.917 
0.00396442      1.41060     -109.463 
6.71303e-05     0.738241     -118.301 
0.00201952     0.461736     -85.0303 
6.61528e-05     0.747930     -119.650 
6.44728e-05     0.752928     -120.311 
0.000186561     0.758024     -120.964 
0.000183027      1.20487     -108.886 
0.00140758      1.14586     -122.164 
6.01232e-05     0.763217     -121.608 
0.000117021      1.23130     -110.937 
0.000116557     0.768505     -122.242 
0.000114111      1.23491     -111.371 
0.000111105     0.702282     -109.983 
0.000324143     0.773886     -122.869 
0.00230857      1.23859     -111.801 
0.000101252     0.698928     -109.213 
0.00443058     0.765506     -123.275 
0.000136847     0.695701     -108.435 
0.00172354     0.462709     -83.7966 
0.000121721     0.692604     -107.650 
0.000177701     0.689638     -106.858 
0.000181925     0.686804     -106.060 
0.000267739     0.463896     -82.5686 
0.000106157     0.684105     -105.255 
0.00833651     0.667083     -102.995 
0.000765534     0.460109     -91.2454 
0.000792721     0.460435     -92.4896 
0.000359887     0.460977     -93.7314 
 0.0126995     0.478017     -105.781 
0.000339854     0.827103     -104.708 
0.000890702     0.824621     -104.036 
0.000166011     0.460000     -90.0000 
0.000248617     0.460109     -88.7546 
0.00104026     0.822253     -103.360 
5.80981e-05     0.820000     -102.680 
0.00555886     0.676831     -102.804 
0.000191141     0.757166     -123.690 
0.00579222      2.46789     -111.888 
0.00245541      1.90079     -115.891 
0.000803732      2.19180     -117.734 
0.000667581      2.36578     -116.348 
0.000335106     0.417732     -132.089 
 0.0330278     0.120830     -114.444 
0.00180781      2.19647     -117.965 
0.000625800      2.68263     -113.507 
0.000822293     0.411096     -131.055 
0.000212741      2.26374     -111.237 
0.000504678      2.37023     -116.565 
0.000302605      2.26013     -111.001 
0.00232880      2.67866     -113.311 
0.000467865      2.25657     -110.764 
0.00128342      2.39270     -117.101 
0.00254617     0.396989     -130.914 
0.00248076      2.39727     -117.313 
0.000512688      2.25304     -110.526 
0.000259334      1.88743     -115.750 
0.00190078      1.89180     -116.023 
0.00278341     0.390513     -129.806 
0.000688084      2.46418     -111.672 
0.000687498      2.24956     -110.288 
0.000901643     0.618466     -129.094 
0.000535357      2.44755     -111.323 
0.00209382      2.40187     -117.525 
0.00105727      2.20118     -118.195 
0.000969095      2.24611     -110.048 
0.00395268     0.624820     -129.806 
0.00177780      2.40651     -117.736 
0.000963507      2.74898     -106.919 
0.000906822      2.24270     -109.808 
0.000604276      2.22657     -109.411 
0.000212046      2.73364     -106.579 
0.00125219      1.88282     -116.157 
0.00167793      2.41118     -117.947 
0.000947091      2.22326     -109.168 
0.000616207      2.20592     -118.424 
0.000936131      2.69579     -113.617 
0.00178921      2.74609     -106.719 
0.00109741      2.22000     -108.925 
0.000529978     0.403609     -131.987 
0.00138205      2.41588     -118.156 
0.000358359      2.21070     -118.652 
0.00150067      2.21678     -108.680 
0.00152619     0.117047     -109.983 
0.000379144      1.88725     -116.429 
0.000205061     0.410366     -133.025 
0.00141659      2.69180     -113.422 
8.22826e-05      2.21551     -118.879 
8.11776e-05     0.384187     -128.660 
0.00198193     0.580086     -125.882 
0.00284836     0.600000     -126.870 
5.45591e-05      2.21472     -118.301 
0.000347937      2.45862     -111.975 
0.000785219      2.21948     -118.528 
0.000438546      2.46238     -112.190 
0.00105203      2.68784     -113.227 
0.000758598      2.51098     -114.217 
0.000761132      2.22428     -118.754 
0.00108611      2.77973     -108.891 
0.000372816      2.23933     -109.568 
0.000452207      2.22910     -118.980 
0.000647705      1.87459     -114.925 
0.000354248      2.68392     -113.030 
0.000279874     0.467547     -138.468 
0.00526575     0.460977     -139.399 
0.000250171      2.21359     -108.435 
4.88521e-05     0.114017     -105.255 
0.00161046     0.378021     -127.476 
0.000907992     0.372022     -126.254 
0.00166282     0.574282     -125.074 
0.00180926     0.594054     -126.098 
9.67019e-05     0.366197     -124.992 
 0.0123363     0.340147     -114.305 
0.000640101      2.23397     -119.204 
0.000184574      1.88367     -114.796 
0.000787833      2.78298     -109.086 
0.000696873      1.87040     -114.647 
0.000174593      2.67615     -112.636 
0.000178053      2.25743     -119.745 
0.000200415      2.67232     -112.438 
0.000387445     0.360555     -123.690 
0.000227868     0.355106     -122.347 
 0.0217418     0.125300     -118.610 
5.53011e-05     0.353553     -118.740 
0.000567104     0.348855     -117.300 
0.00158690     0.568595     -124.249 
0.000727146     0.344383     -115.821 
0.00215286     0.588218     -125.311 
0.00130937      2.26742     -120.184 
0.000390111      2.38365     -116.673 
0.000235743      2.38816     -116.887 
 0.0278340     0.130384     -122.471 
0.00245317     0.162788     -132.510 
0.00225503     0.169706     -135.000 
8.13796e-05      2.37034     -116.025 
0.000276376      2.37474     -116.241 
1.94075e-05      1.87949     -114.520 
0.000126771      1.87537     -114.242 
0.000479273      2.08557     -114.353 
1.69625e-05      1.86625     -114.368 
0.000978305     0.563028     -123.408 
0.000300297     0.582495     -124.509 
0.000205449      2.36163     -115.589 
0.00175282     0.176918     -137.291 
4.95843e-05      2.35733     -115.369 
3.36578e-05      1.87128     -113.962 
0.000153923      1.85540     -112.834 
0.000700919     0.557584     -122.550 
0.000219116      2.34883     -114.928 
0.000147474      2.34463     -114.707 
5.74268e-05      1.86462     -112.714 
0.00408773      1.61385     -112.593 
0.000988053      4.02573     -107.940 
0.000680839      4.02882     -108.075 
0.000580793      3.80643     -106.483 
0.000235593      4.02266     -107.804 
0.000177984      4.01961     -107.669 
0.00295620      1.22201     -126.682 
0.000459726      3.80928     -106.627 
0.000127904      4.01659     -107.533 
0.00150652      1.40089     -124.824 
8.26824e-05      4.01359     -107.397 
0.000120235      4.01061     -107.260 
0.00142408      1.61003     -112.264 
0.000153563      4.00766     -107.124 
0.00278969      3.81215     -106.771 
0.00814991     0.328938     -109.537 
0.000110444      4.00472     -106.987 
0.00232499      4.00181     -106.850 
0.000724031      1.60627     -111.934 
0.00824170     0.136015     -126.027 
0.00114059     0.184391     -139.399 
0.000400256      1.60256     -111.602 
0.000402469      1.39521     -124.487 
0.000291520     0.453431     -138.576 
3.79265e-05      1.38130     -124.380 
0.000143236      1.59891     -111.269 
3.55749e-05      1.37568     -124.037 
8.77550e-05     0.192094     -141.340 
0.000546299      1.39270     -125.059 
0.000125243      1.39846     -125.395 
0.000435936     0.101980     -101.310 
0.00152231     0.338378     -108.970 
0.00160400     0.104403     -106.699 
 0.0120386     0.107703     -111.801 
0.00348949     0.111803     -116.565 
0.000853427     0.347851     -108.435 
0.00356045      1.78025     -103.646 
0.00412009     0.343657     -98.3659 
5.09961e-05     0.345253     -100.008 
0.000825843     0.335410     -100.305 
0.00128923      1.80569     -108.736 
0.000862440      1.77792     -103.333 
0.000174944     0.668506     -124.641 
0.000475994      1.77564     -103.019 
0.000267471     0.676757     -124.160 
0.000283501      1.77341     -102.704 
0.000267218     0.342345     -96.7098 
0.000798924     0.662873     -123.930 
0.000172469     0.333766     -98.6157 
0.00480388     0.353553     -98.1301 
0.000121455     0.671193     -123.453 
0.00634853    0.0921954     -102.529 
0.000638231    0.0905539     -96.3402 
0.000270140    0.0900000     -90.0000 
0.00100812     0.657343     -123.207 
2.69280e-05      1.77124     -102.388 
0.000202047     0.156205     -129.806 
0.00315155     0.176918     -132.709 
0.000758883    0.0806225     -82.8750 
6.55593e-05    0.0824620     -75.9638 
 0.0125853    0.0799999     -90.0000 
0.000114708     0.651920     -122.471 
0.000365845     0.355106     -99.7276 
0.000819932      2.69920     -119.034 
0.000140660      2.95466     -113.962 
0.000381916      1.54434     -114.075 
0.000151746      3.30335     -118.970 
0.000202343      2.95061     -113.785 
0.00151760      1.54845     -114.413 
2.61394e-05      3.29460     -119.055 
0.00101257      3.56665     -118.649 
0.00861624    0.0806225     -97.1251 
0.000198609      2.94659     -113.607 
0.00122999      2.70407     -119.219 
0.00109545      3.30820     -119.122 
4.00893e-05      3.62824     -118.119 
0.000172944      2.94260     -113.429 
0.000104242      3.64177     -118.184 
0.000102794      2.93864     -113.250 
0.000112491      3.63706     -118.045 
0.000639220     0.205183     -133.025 
7.85563e-05      2.94002     -112.815 
0.000343573      3.57146     -118.790 
8.94743e-05      3.20952     -114.089 
0.000123652      2.93615     -112.635 
0.000223913      3.20545     -113.926 
0.000596868     0.212132     -135.000 
0.000377485      2.70836     -110.308 
0.000452799     0.378550     -102.200 
0.000366718      1.89362     -113.993 
0.000176496      2.93232     -112.455 
0.000325928      3.31308     -119.273 
0.000294831      3.20141     -113.763 
2.08979e-05      3.65059     -118.109 
0.000176835      1.55756     -114.261 
0.00154761      2.72753     -119.667 
9.70225e-05      2.92851     -112.274 
0.000262047      3.57628     -118.930 
0.000369687      2.93027     -111.838 
0.000181622      3.65531     -118.248 
4.21416e-05      2.68561     -118.951 
7.40759e-05      1.55348     -113.925 
7.78127e-06      2.66242     -118.490 
0.000309789     0.226274     -135.000 
0.000785292     0.240416     -135.000 
0.000950232      3.58113     -119.070 
0.000547574      2.70148     -109.911 
1.44497e-05      3.64651     -118.322 
0.000197474      3.66005     -118.386 
0.000120050      1.53235     -113.051 
0.000174654      1.52846     -112.706 
0.000455436     0.380789     -103.671 
0.000139971      2.70490     -110.110 
0.000509835      1.48661     -109.654 
8.84792e-05      1.88162     -113.159 
5.66384e-05      1.53629     -113.394 
0.000139893      1.49603     -109.525 
0.00113834     0.219317     -133.152 
0.000609912     0.233452     -133.264 
0.00204775     0.247588     -133.363 
3.85453e-05      2.93401     -112.019 
9.78303e-05      1.54029     -113.736 
0.000365239     0.383275     -105.124 
0.000197903      2.69809     -109.711 
0.00135072     0.254951     -131.820 
0.000429235     0.386005     -106.557 
6.41977e-05     0.198494     -130.914 
0.000355021     0.212603     -131.186 
0.000305645     0.240832     -131.634 
0.000257303     0.388973     -107.969 
3.76105e-05      2.73622     -119.563 
0.000432685      4.04260     -111.933 
0.000335326     0.164012     -127.569 
0.00182268     0.184391     -130.601 
0.00481961     0.101980      11.3100 
0.000220700      3.75985     -114.179 
0.000870842      3.76396     -114.318 
0.000325672      1.57201     -126.724 
0.000377127      4.03887     -111.801 
0.000640182     0.506063     -127.776 
8.45898e-05      1.45066     -105.186 
0.00607093     0.114017      15.2551 
0.000880882     0.380789     -113.199 
0.000408074      1.46031     -105.083 
0.000141789      1.57801     -127.015 
0.000740919     0.276586     -130.601 
6.23682e-05      1.59201     -127.086 
4.66033e-05     0.371618     -113.806 
7.80937e-05      1.56109     -115.416 
0.000546158    0.0948683     -108.435 
0.000129047      1.58600     -126.798 
4.30311e-05      4.03517     -111.670 
0.00363642     0.150000     -126.870 
0.000585986     0.111803      10.3049 
0.000141434     0.262488     -130.365 
0.000129527      1.55682     -115.084 
0.000593638      2.48670     -117.286 
0.000640672      2.50018     -117.385 
0.00159196     0.226716     -131.424 
0.00150740     0.624340     -121.908 
0.000221402     0.234307     -129.806 
0.000466006      2.74274     -111.607 
0.000206752     0.545619     -131.285 
0.000103533     0.288444     -123.690 
0.000165201     0.552268     -132.064 
0.000157823     0.126491      18.4350 
0.000570009     0.331210     -118.887 
0.000105205     0.559017     -132.825 
4.24332e-05      2.49130     -117.491 
2.96227e-05     0.558659     -134.275 
2.67194e-05     0.565685     -135.000 
0.000681168     0.546717     -129.806 
5.28822e-05     0.607454     -122.905 
0.000363834     0.615873     -122.400 
7.52309e-05      2.45978     -117.086 
0.000481239      2.47324     -117.187 
0.000453159      2.75204     -111.531 
8.58556e-05     0.553173     -130.601 
3.25949e-05      2.46435     -117.293 
3.01359e-05      2.47782     -117.392 
0.000738324     0.326496     -117.350 
0.000305855     0.170294     -130.236 
0.000643156     0.539073     -130.486 
0.00237187    0.0632455     -71.5651 
5.53557e-05    0.0670820     -63.4349 
0.00428408    0.0905539      6.34023 
0.00195621    0.0640312     -51.3402 
0.000604357     0.322025     -115.769 
3.97165e-05      2.46868     -116.980 
1.39138e-05      2.54031     -117.170 
2.54228e-05      2.48214     -117.081 
0.00132526     0.250000     -126.870 
0.000526557     0.117047      19.9831 
0.00106429     0.104403      16.6992 
0.00683175    0.0583095     -59.0362 
0.000246642    0.0799999      0.00000 
1.60071e-05    0.0632455     -18.4349 
0.000466968    0.0565685     -45.0000 
5.64148e-05     0.357351     -107.928 
0.00163085     0.360555     -109.440 
0.00133117     0.351141     -109.983 
0.000796683     0.415933     -117.181 
0.000797833     0.364005     -110.925 
0.000601294     0.326956     -113.429 
0.00322357    0.0806225      7.12506 
0.00208462     0.144222     -123.690 
0.000289638     0.411461     -115.942 
1.99985e-05     0.376961     -111.801 
-0.000530379      1.64757     -161.235 
0.000138731      5.65475      172.787 
-0.000815696      1.20000      180.000 
-0.000457145      1.64438     -161.565 
0.000581825      5.63618      172.661 
-0.000167558      3.19061     -4.67416 
-0.00130507      3.18148     -4.86833 
-0.000126107      1.63490     -161.454 
0.000626026      5.03083     -171.081 
-0.000506733      5.68000     -90.0000 
-0.000838550      1.24000      0.00000 
0.000114806      5.58198      172.175 
-0.000755711      3.12699     -7.53410 
0.000684612      2.68794     -55.3048 
0.000616223      6.94262     -115.236 
0.000613368      2.14979     -167.645 
0.000146023      3.71248     -7.58444 
-0.000595837      4.50884     -111.329 
-0.000319366      5.66593     -54.6269 
0.000308305      3.67267     -2.18461 
0.000365095      4.94975     -45.0000 
-0.000582773      1.21000      180.000 
0.000167251      5.57345      172.059 
0.00109023      5.88541     -116.870 
-0.000140644      6.01269     -91.7155 
0.000162267      5.66343      172.900 
-0.000167507      5.68001     -89.8991 
0.000341768      4.05627      50.5019 
-0.00106156      3.05806     -100.171 
0.000504003      2.22144      177.936 
0.000252464      5.02096     -171.063 
-0.000259225      1.95849     -128.157 
-0.000569056      3.45475     -15.4442 
0.000314241      4.79267     -155.467 
0.000720268      3.72239     -7.56413 
0.000310327      5.55503      171.928 
-0.000129616      1.64104     -133.519 
-0.000129909      6.00270     -91.7184 
-0.000422544      5.66015     -54.7094 
0.000912960      7.65823     -135.476 
-0.000349932      2.80104      136.447 
-0.000157603      3.08759      100.072 
0.000285735      5.64522      160.763 
-0.000580750      6.30658     -61.0778 
0.000449120      7.19447     -123.778 
0.000534780      5.78572      160.093 
-0.000314853      2.80829      136.587 
0.000283602      5.99554     -51.1611 
-6.16383e-05      1.22004    -0.469626 
-0.000259254      6.00301     -91.8138 
0.000257989      1.67872     -8.56452 
-0.000396755      4.85874     -70.1479 
-0.000354547      1.64794     -133.771 
0.000398250      4.40069      48.7773 
6.04012e-05      1.70018     -13.9545 
-8.79365e-05      5.68004     -89.7983 
-0.000601084      1.96469     -128.387 
0.000217909      4.37605     -93.0128 
-0.000617603      1.23004    -0.465808 
0.000456005      2.00691     -172.556 
