! Center RA: 12 29 06.69973,  Dec: +02 03 08.59828 (2000.0)
! Established model.
! Flux (Jy) Radius (mas)  Theta (deg)  Major (mas)  Axial ratio   Phi (deg) T \
! Freq (Hz)     SpecIndex
 0.0521616     0.114018     -127.875 
 0.0223361     0.128063     -128.660 
 0.0640843     0.142127     -129.289 
 0.0634592     0.156205     -129.806 
 0.0809863     0.170294     -130.236 
 0.0771614     0.184391     -130.601 
  0.126918     0.192094     -128.660 
 0.0843009     0.206155     -129.094 
 0.0162849     0.234308     -129.806 
 0.0161169     0.150000     -126.870 
 0.0159901     0.248395     -130.101 
 0.0289410     0.136015     -126.027 
   1.13492     0.254951     -131.820 
 0.0301128     0.122066     -124.992 
 0.0542799     0.108167     -123.690 
 0.0263061     0.100000     -126.870 
 0.0935056    0.0943399     -122.005 
 0.0528133    0.0860234     -125.538 
  0.270306    0.0806227     -119.745 
  0.158525    0.0761579     -113.199 
 0.0215118    0.0721111     -123.690 
0.00535610    0.0806227     -97.1251 
 0.0239224    0.0905539     -83.6598 
0.00241520    0.0921955     -77.4712 
  0.362462     0.431393     -134.061 
  0.295566     0.707672     -137.291 
  0.174404     0.424500     -133.091 
  0.114256     0.715053     -137.834 
 0.0124229     0.431393     -135.939 
 0.0216602     0.417732     -132.089 
0.00257002     0.412311     -129.094 
 0.0119667     0.439318     -138.691 
 0.0144684     0.402244     -124.875 
  0.164417     0.394462     -120.466 
0.00881213     0.722496     -138.366 
 0.0118621     0.446878     -139.538 
 0.0315627     0.723464     -139.485 
 0.0279486     0.731095     -139.994 
0.00654057     0.454533     -140.356 
 0.0114467     0.738783     -140.492 
0.00693057     0.462277     -141.147 
 0.0129749     0.740270     -141.582 
0.00569965     0.470106     -141.911 
 0.0159653     0.748131     -142.058 
0.00687256     0.750000     -143.130 
0.00205642     0.756042     -142.524 
 0.0206296     0.478017     -142.651 
0.00199410     0.773369     -139.720 
 0.0453560     0.781025     -140.194 
0.00515966     0.744043     -143.746 
 0.0357524     0.738174     -144.372 
 0.0608263     0.553625     -159.928 
 0.0252064     0.547814     -158.587 
 0.0339157     0.538517     -158.199 
 0.0288352     0.563028     -160.278 
0.00451107     0.411096     -138.945 
 0.0153786     0.578705     -161.878 
 0.0231433     0.403609     -138.013 
0.00433022     0.604401     -163.664 
0.00740721     0.620967     -165.069 
 0.0105354     0.637887     -166.399 
 0.0954343     0.824197     -144.382 
 0.0135142     0.822010     -143.409 
 0.0432110      1.84391     -139.399 
0.00303108      1.56029     -142.028 
 0.0121553     0.374433     -124.114 
 0.0177746      1.56818     -142.253 
 0.0283627      2.62376     -141.033 
 0.0100977     0.372156     -120.700 
 0.0197480     0.367151     -119.358 
0.00144642      2.61748     -141.203 
 0.0146036      2.64433     -142.220 
0.00246338      2.63644     -142.087 
0.00170248      1.69812     -147.995 
0.00118098      1.55081     -141.282 
0.000805629      1.70660     -148.173 
0.00913007      1.71511     -148.349 
0.00159238     0.362354     -117.979 
0.00105587      1.53388     -140.290 
0.00936660     0.594811     -163.393 
 0.0220800      1.85043     -139.164 
0.00366238     0.366743     -115.866 
0.000961630      1.52620     -140.050 
0.00149227      2.61599     -140.896 
 0.0144406     0.362491     -114.444 
0.000302003      1.51743     -139.276 
0.00140236      1.50987     -139.028 
0.000819135      2.58907     -139.543 
0.00101682      2.58043     -139.086 
0.000258441      1.50233     -138.778 
0.000739275      1.49402     -137.984 
0.000710859      2.57288     -138.940 
0.00201740      2.64615     -142.524 
0.000688704      1.48661     -137.726 
0.00668905     0.611310     -164.827 
0.00505502      2.57194     -138.625 
0.00465799      1.72038     -148.065 
0.000218664      1.47868     -136.918 
0.00103267      1.47139     -136.652 
0.000206902      2.65409     -142.655 
0.00293075      2.65601     -142.958 
0.00299245      1.46414     -136.384 
0.00165198      2.65801     -143.259 
0.00990877     0.232594      64.5367 
0.00688294      5.11415     -133.495 
 0.0150607     0.844038     -143.673 
0.00652597      5.10727     -133.413 
 0.0203086     0.233238      59.0362 
0.00437340      2.85806     -139.399 
 0.0256671      3.95324     -135.922 
0.00897944     0.360555     -123.690 
0.00968040      2.85156     -139.551 
0.00971905      5.11454     -133.336 
0.00729987     0.355106     -122.347 
 0.0104499     0.852115     -144.071 
0.00660771     0.349857     -120.964 
0.00655124      2.84508     -139.705 
0.00648676      5.12182     -133.260 
0.00504143     0.344819     -119.539 
0.00943165     0.236008      53.6157 
0.00760732     0.860233     -144.462 
 0.0120656     0.528110     -161.222 
0.000708503      2.83746     -139.574 
0.00322731     0.340000     -118.072 
0.00343112      2.83863     -139.858 
0.00485972      5.12910     -133.183 
0.00387264     0.230217      55.6197 
0.00582846      3.96020     -135.818 
0.00976208     0.335410     -116.565 
0.00133525      2.83099     -139.728 
0.00728583     0.868389     -144.846 
0.00124684      2.83219     -140.013 
0.00312065      5.13640     -133.107 
0.00212348     0.331059     -115.017 
 0.0100185      2.82454     -139.883 
 0.0112395      3.96718     -134.285 
0.00333408     0.247588      46.6366 
0.00437351     0.326956     -113.429 
0.00196493      5.15053     -133.112 
0.00317327      3.95349     -136.127 
0.00864601     0.286007      36.4692 
0.000516428      5.15784     -133.036 
0.000126473     0.876584     -145.222 
0.00170109      5.17880     -133.122 
0.00893296     0.874185     -144.310 
0.000345242     0.240832      48.3665 
0.000906129      5.18564     -133.203 
 0.0113959      5.21311     -133.523 
0.00209853      3.95380     -136.332 
0.000103103     0.224722      57.7244 
 0.0173978     0.272947     -118.443 
0.000786306      5.17197     -133.041 
8.88181e-05     0.219545      59.9314 
 0.0241701     0.882327     -144.689 
0.00182179     0.238537      56.9761 
 0.0135727     0.242074      51.7098 
0.00274961     0.344384     -115.821 
0.00182304     0.340147     -114.305 
0.00209949     0.248395      49.8991 
0.00105598      3.97417     -134.388 
0.00200720     0.269072      41.9872 
0.00142071     0.276586      40.6013 
0.00196102     0.345398     -112.109 
0.00726328      2.83986     -140.143 
0.000485595     0.284253      39.2894 
0.00468436     0.292062      38.0471 
0.000469688      3.96043     -136.023 
0.000256064     0.890506     -145.061 
0.00290280     0.888144     -144.162 
0.000398990     0.354683     -111.501 
0.00765044      5.05684     -144.173 
 0.0131154      5.73008     -136.697 
0.00854313      5.04873     -144.106 
0.000481362      4.94079     -145.055 
 0.0383236      4.93260     -144.989 
 0.0128208      5.73781     -136.907 
 0.0360398      3.52415     -142.610 
 0.0120439      5.49102     -131.382 
 0.0158733      2.13925     -131.589 
0.00214917      5.06270     -144.081 
0.00235668      5.06857     -143.989 
 0.0295779     0.228473     -66.8014 
0.000736543      5.07446     -143.898 
0.00140920      5.08254     -143.964 
 0.0138144      5.08843     -143.873 
0.000606634      5.09433     -143.782 
0.000877712      5.10240     -143.849 
0.00403821      5.74512     -136.975 
0.00490493      2.13178     -131.767 
0.00111381      5.10831     -143.758 
0.00866181      5.48441     -131.304 
0.000269052      5.11423     -143.668 
0.00178597      5.12016     -143.578 
0.00812303      5.12821     -143.644 
0.00547869      5.75296     -137.184 
0.00969357      2.13846     -131.967 
 0.0100769      5.76087     -137.392 
0.00641570      5.47782     -131.225 
0.00190767      2.14590     -131.789 
 0.0115267      5.13626     -143.710 
0.00298601      3.51808     -142.739 
0.00220561      2.10278     -132.109 
0.00187341      5.16469     -145.571 
0.000372259      2.15337     -131.611 
0.000574376      2.16002     -131.810 
0.00171217      2.09609     -131.906 
0.00103674      2.16749     -131.634 
0.00204188      5.14433     -143.776 
0.000622611      5.47691     -131.373 
0.00299636      4.92441     -144.922 
0.00335877     0.237697     -67.7510 
0.000818220      2.08943     -131.702 
0.000763664      2.17497     -131.459 
0.000723801      5.50114     -132.127 
0.00118832      5.15904     -145.663 
0.000603111      5.47123     -131.147 
0.000519819      5.71428     -135.993 
0.000521163      2.08279     -131.496 
0.000477911      2.18161     -131.655 
0.000647889      5.49443     -132.049 
0.000248080      2.07617     -131.290 
0.000126969      2.18248     -131.285 
0.000334971      2.18909     -131.481 
0.000250113      5.15240     -143.842 
0.000245135      2.05000     -130.450 
0.00939246     0.370135     -128.418 
0.00510563      5.16245     -140.265 
0.00346288      4.78257     -136.864 
0.00806424     0.800562     -138.545 
0.00492698      6.61974     -136.102 
0.00525101     0.364006     -127.185 
0.00383470      3.69892     -138.727 
0.00492595      4.77528     -136.782 
0.00321063      2.69007     -142.704 
0.00142368      6.61281     -136.164 
0.00936998      5.17148     -140.492 
 0.0166865     0.190263     -93.0128 
0.00221855      5.17015     -140.336 
 0.0103647     0.368782     -130.601 
0.00234390      2.88640     -142.177 
0.00268245      2.68213     -142.575 
 0.0148368     0.809197     -140.013 
0.000204783      1.15256     -128.660 
0.00482764      1.15745     -129.742 
0.00740494      6.61254     -136.042 
0.00278144      2.88467     -141.899 
0.00278165      4.76800     -136.700 
0.00314136      3.69141     -138.624 
0.000347706      2.67419     -142.444 
0.000838399      4.76760     -136.530 
0.00161668      2.67606     -142.745 
0.00641181      2.87680     -141.776 
0.00110597      4.76072     -136.617 
0.00504684     0.374833     -133.919 
0.000622877      5.18059     -140.718 
0.00968353      1.16516     -129.428 
0.00159188      4.76035     -136.447 
0.000736292      5.18202     -140.874 
0.00208604      2.66811     -142.615 
0.00239615      3.69986     -138.945 
0.000546838      5.18029     -141.427 
0.00655188      6.60535     -135.981 
0.000405196      4.75346     -136.534 
0.000271018      5.16885     -140.180 
0.000648258      5.16759     -140.024 
0.00126727      4.75310     -136.364 
0.000131730      5.17406     -141.513 
0.00570797      5.16784     -141.600 
0.00173390      2.66017     -142.484 
0.000370061      5.16637     -139.868 
0.000722301      2.87517     -141.496 
0.00122033     0.382100     -137.121 
0.000356251      5.15757     -139.640 
0.00114775      4.74587     -136.281 
0.00563052      2.86735     -141.371 
0.000889911      5.16519     -139.712 
0.000776984      3.71602     -139.365 
0.00104224      4.73865     -136.197 
0.00503748     0.816884     -140.464 
0.000999328      5.16405     -139.555 
0.00326449      3.71712     -139.583 
0.00108499      2.65224     -142.352 
0.000294042     0.389487     -138.122 
0.000294043      4.73144     -136.113 
0.00352116      4.72400     -135.858 
0.00151071     0.818352     -141.450 
0.000457533     0.390513     -140.194 
0.000367909      5.16294     -139.399 
0.000768233      5.17054     -139.471 
0.00316431      6.59816     -135.921 
0.00161990     0.398246     -141.116 
0.00203343      2.61905     -141.511 
0.00236127     0.826196     -141.882 
0.000160340      5.16946     -139.315 
0.000819818      5.17705     -139.387 
0.000664259      5.18464     -139.459 
0.000445150      4.71704     -135.945 
6.25318e-05      5.19224     -139.530 
0.00574726     0.771557     -137.626 
0.00619323     0.390513     -129.806 
0.00523907      3.30038     -143.998 
0.00915471      3.29229     -143.896 
0.00140134     0.771038     -136.577 
0.00399594     0.778974     -138.122 
0.00491316     0.386005     -126.573 
0.00486570     0.786448     -138.608 
0.00374217      3.29451     -144.139 
0.00581501     0.380132     -125.362 
0.00770369     0.793977     -139.086 
0.00170968      3.32609     -145.163 
0.00101521      3.28422     -143.793 
0.00565225     0.801561     -139.554 
0.000908560      3.27405     -143.445 
0.00270070      3.32039     -145.305 
0.000417558      3.27200     -143.200 
0.000520502      3.26400     -143.095 
0.000826403      3.26204     -142.849 
0.00276975      3.31471     -145.447 
0.00406584     0.824621     -140.906 
0.000217367      3.25407     -142.743 
0.00124769      3.25220     -142.496 
 0.0197003     0.832406     -141.340 
0.00293038      3.30905     -145.590 
0.00108090      3.24248     -142.141 
0.000754872      3.24076     -141.892 
 0.0104119     0.395980     -135.000 
0.00460167     0.388973     -133.958 
0.00390769     0.382884     -130.764 
0.00451940     0.376431     -129.611 
0.00403494      3.29679     -144.382 
0.00215897      3.29912     -144.624 
0.00213675      3.28866     -144.280 
0.000405017      3.31217     -145.206 
0.000461227      3.27832     -143.934 
0.000259843      3.26810     -143.586 
0.00155925     0.353554     -118.740 
0.000480849      3.26602     -143.341 
0.000635935      3.25601     -142.989 
0.000938270     0.348855     -117.300 
0.000191915      3.24612     -142.636 
0.00660983     0.382100     -132.879 
0.00423894     0.375367     -131.760 
0.00281336     0.808084     -139.014 
0.00357697      3.30847     -144.100 
0.00743090     0.358050     -125.910 
 0.0224522     0.838690     -140.807 
0.00575262     0.352278     -124.592 
0.00185485      3.30262     -144.240 
0.00719033      3.39013     -143.637 
0.00633749     0.362353     -129.401 
0.00153393     0.815659     -139.475 
0.00113933     0.823286     -139.927 
0.00680415     0.356090     -128.157 
0.00136308     0.830963     -140.371 
0.00285089     0.346699     -123.232 
0.000940755      3.31435     -143.960 
0.00142546      3.30627     -143.858 
0.00129375     0.341321     -121.827 
0.00331451      3.30492     -144.482 
0.000251352     0.784920     -135.516 
0.00107173     0.799813     -137.534 
0.00548776     0.350000     -126.870 
0.000337016     0.807218     -138.013 
0.000752362     0.344093     -125.538 
 0.0343495     0.283019     -122.005 
0.00519475     0.751665     -130.684 
0.000286325      3.31074     -144.342 
0.000583741     0.758222     -131.257 
0.000102624     0.764199     -132.879 
0.000882709     0.771038     -133.423 
0.000238785      3.31658     -144.201 
 0.0298313     0.246982     -58.2405 
0.00179828      7.65355     -147.431 
0.00336661      3.43332     -137.715 
0.00883812      7.64513     -147.391 
0.00457468      1.35665     -144.904 
0.000445112      5.94030     -134.182 
0.00314499      3.44073     -137.827 
0.00527108      1.31034     -141.818 
0.00725152      5.93334     -134.112 
 0.0126050      4.97323     -146.981 
0.000864625      5.08035     -143.807 
0.000765362      3.44814     -137.939 
0.00157758      3.53425     -141.087 
0.00138386      3.44006     -137.592 
0.00306202      3.54054     -140.961 
0.00467395      1.40663     -147.779 
0.00149156      3.43945     -137.357 
 0.0100668      5.92638     -134.043 
 0.0121145      4.98162     -147.044 
0.00251860      7.62529     -147.206 
0.00104992      3.54684     -140.836 
0.00159411      3.43890     -137.121 
0.00240238      1.30250     -141.546 
0.00701724      3.57863     -140.215 
0.000512689      3.43840     -136.886 
0.00686069      3.52797     -141.213 
0.00265885      7.63671     -147.350 
0.000977001      3.43111     -136.771 
0.00207709      1.29468     -141.271 
0.00111751      7.61688     -147.165 
0.00287732      4.99001     -147.106 
0.00124352      7.68505     -147.758 
0.00314066      5.91943     -133.973 
0.000822641      1.27781     -140.080 
7.92097e-05      3.43796     -136.650 
0.00109471      3.43070     -136.535 
0.00120458      5.91970     -133.836 
0.00136596      7.60848     -147.125 
0.00157438      5.07229     -143.740 
0.000708889      1.27016     -139.790 
0.00529138      5.06423     -143.673 
0.00402034      1.30419     -142.164 
0.000119935      3.44571     -136.999 
0.00177952      3.45303     -137.112 
0.00275224      1.38975     -147.339 
0.00194133      5.93357     -133.976 
0.000104648     0.191050     -132.879 
0.000405774      3.46036     -137.225 
0.00111431     0.197990     -135.000 
0.00100999      3.46716     -137.104 
0.00169521      7.62829     -147.310 
0.000337374     0.205183     -136.975 
8.34325e-05      3.48129     -137.095 
0.000474987      3.47397     -136.983 
0.00267179      5.92663     -133.906 
0.000840721      3.49543     -137.087 
0.00168403      1.28690     -140.993 
0.00270059      3.50224     -136.967 
0.000529440      7.60009     -147.084 
0.000396769      7.67659     -147.718 
 0.0196435     0.238537     -56.9762 
0.000328178      5.05617     -143.606 
0.00363357      5.04813     -143.539 
0.00233139      1.38134     -147.115 
0.000579724      7.61988     -147.269 
0.00146294      3.50907     -136.848 
0.000155894      7.61147     -147.229 
0.00165962      5.03206     -143.403 
0.00198258      3.51592     -136.729 
0.000980709      5.04009     -143.471 
0.000147712      1.29630     -141.892 
0.000187701      1.27914     -140.711 
0.000125073      5.01601     -143.267 
0.00170646      5.02403     -143.335 
0.000911019      5.91250     -133.904 
0.000761652      1.37295     -146.889 
0.00135395      5.00800     -143.199 
0.000700248      5.90557     -133.834 
 0.0163965     0.715891     -131.035 
0.00427167      5.03700     -133.230 
0.000564343      4.76844     -133.130 
0.00481240      2.77087     -145.736 
0.00505964      4.76161     -133.043 
0.00337448      4.12404     -143.380 
0.00232577      1.40663     -125.159 
0.00391942      2.76827     -145.449 
0.00629727      6.71450     -136.992 
0.00357913      5.03659     -133.391 
0.00617323      6.70719     -136.933 
0.00109327      4.11602     -143.297 
0.00568266      1.41241     -125.491 
0.00105501      3.08449     -145.434 
0.00914222     0.722496     -131.634 
0.00534606      4.12612     -143.574 
0.000482030      3.08196     -145.176 
0.000464158      2.76574     -145.161 
0.00200308      4.75479     -132.955 
0.00235119      3.09018     -145.281 
0.00145402      2.75754     -145.042 
0.00740358      2.88300     -141.620 
0.00134150      5.02555     -132.419 
0.000101012      5.03621     -133.552 
9.89238e-05      5.03587     -133.713 
0.00507531     0.729178     -132.221 
9.67215e-05      5.04251     -133.955 
9.46341e-05      5.03532     -134.034 
 0.0123647      2.72406     -143.509 
0.00152992      5.01881     -132.335 
0.00176540      5.04227     -134.116 
0.00119932      4.74747     -133.037 
0.00598734     0.842021     -142.722 
0.00221291     0.367696     -135.000 
0.00459122      3.09588     -145.129 
0.000807213      4.74065     -132.948 
0.00453425      1.41481     -124.926 
0.00137523      5.04924     -134.198 
0.00101310      5.01209     -132.251 
0.00648474      4.87238     -134.252 
0.00180447      4.10800     -143.214 
0.000387421      4.73385     -132.860 
0.000456231      5.05621     -134.279 
0.000254670     0.360694     -133.877 
0.000308602      5.06320     -134.360 
0.000478591     0.360694     -136.123 
0.000293676      4.72705     -132.771 
0.000173843     0.709366     -130.426 
0.00642297      5.07020     -134.441 
0.00196155      3.10161     -144.978 
0.000799075     0.353554     -135.000 
0.000374851      4.72026     -132.682 
0.000119356     0.702923     -129.806 
0.00263834      4.10000     -143.130 
0.000906289      4.16285     -144.286 
0.000142092     0.696563     -129.174 
0.000333982      4.71349     -132.593 
0.000817358      5.00537     -132.166 
4.90943e-05     0.346555     -136.169 
0.000928706     0.339411     -135.000 
0.00114940      4.08208     -142.765 
0.000417550      4.70673     -132.503 
0.000183582     0.690290     -128.530 
0.000713152      3.10736     -144.827 
0.00479432      4.07413     -142.680 
0.000627325     0.332415     -133.781 
0.000391144      4.69998     -132.413 
0.000324396     0.325576     -132.510 
