! Center RA: 16 42 58.80997,  Dec: +39 48 36.99399 (2000.0)
! Established model.
! Flux (Jy) Radius (mas)  Theta (deg)  Major (mas)  Axial ratio   Phi (deg) T \
! Freq (Hz)     SpecIndex
0.00685216      4.65102     -93.9452 
0.00267432      4.38480     -94.7094 
0.000426900      4.38399     -94.5791 
0.00323731      4.39396     -94.5687 
0.00318750      4.64175     -94.0768 
0.00150783      4.40315     -94.4286 
0.00289012      4.63249     -94.2090 
0.00247883      4.41312     -94.4186 
0.00170056      4.62327     -94.3417 
0.00100291      4.42233     -94.2795 
0.000330970      4.73466     -92.5421 
0.000326299      4.36487     -94.7309 
0.000643575      4.75421     -92.4110 
0.000323261      4.61330     -94.3511 
0.000322414      4.44227     -94.2602 
0.000319801      4.34664     -95.0154 
0.00123363      4.60410     -94.4846 
0.000785387      4.45225     -94.2507 
0.000603259      4.76379     -92.2858 
0.000313499      4.33668     -95.0270 
0.000309736      4.46149     -94.1131 
0.000308628      4.77340     -92.1611 
0.00120668      4.32761     -95.1705 
0.000304432      4.78339     -92.1566 
0.000302152      4.59413     -94.4944 
0.00186727      4.46222     -94.2411 
0.000299676      4.80301     -92.0284 
0.000296212      4.85202     -91.6534 
0.00135890      4.47219     -94.2317 
0.000292697      4.86174     -91.5322 
0.000861765      4.31765     -95.1824 
0.000290392      4.61407     -94.4749 
0.000571052      4.87148     -91.4115 
0.000562155      4.60489     -94.6086 
0.000280685      4.74422     -92.4161 
0.000556086      4.88148     -91.4086 
0.000827819      4.30861     -95.3269 
0.000540327      4.73423     -92.4212 
0.00474174      4.89124     -91.2886 
0.000269596      4.61486     -94.5987 
0.00131017      4.29865     -95.3392 
0.000261476      4.60570     -94.7326 
0.000514779      4.73381     -92.3003 
0.000253230      4.61567     -94.7224 
0.000500589      4.28964     -95.4847 
0.000248349      4.72382     -92.3052 
0.000246885      4.60654     -94.8566 
0.000244877      4.28869     -95.3517 
0.000242848      4.72343     -92.1840 
0.00117896      4.27968     -95.4975 
0.00113694      4.89147     -91.4057 
0.000239799      4.61650     -94.8461 
0.000237915      4.73271     -91.9374 
0.000234048      4.61736     -94.9697 
0.000232036      4.73238     -91.8164 
0.000228958      4.73207     -91.6954 
0.000228050      4.46297     -94.3692 
0.000449470      4.62732     -94.9590 
0.00152467      4.26973     -95.5103 
0.00149200      4.45300     -94.3790 
0.000223647      4.73152     -91.4533 
0.000219270      4.73106     -91.2111 
0.000217507      4.63728     -94.9483 
0.000215508      4.73086     -91.0901 
0.000213085      4.63816     -95.0714 
0.000211385      4.73068     -90.9690 
0.000209388      4.64812     -95.0605 
0.000208094      4.76844     -96.2606 
0.000412425      4.73052     -90.8479 
0.000614106      4.26878     -95.3767 
0.000408921      4.77838     -96.2475 
0.000400497      4.73038     -90.7268 
0.000201409      4.60014     -95.3636 
0.000398931      4.78832     -96.2345 
0.000786032      4.26786     -95.2430 
0.000197885      4.89102     -91.1715 
0.000757879      4.44303     -94.3888 
0.00443242      4.90112     -93.8607 
0.000195709      4.62005     -95.3404 
0.000387544      4.73026     -90.6056 
0.000388090      4.79826     -96.2215 
0.000761565      4.89083     -91.0544 
0.000191134      4.26695     -95.1093 
 0.0114134      4.80820     -96.2086 
0.000190226      4.60109     -95.4876 
0.00209564      4.72026     -90.6069 
0.000375485      4.26608     -94.9756 
0.000185709      4.61104     -95.4757 
0.000695339      4.43306     -94.3987 
0.00765722      4.28169     -96.9756 
0.000720158      4.89065     -90.9373 
0.000183080      4.75850     -96.2737 
0.000364668      4.26358     -94.5739 
0.000179999      4.60205     -95.6115 
0.000353259      4.26203     -94.3059 
0.000175085      4.73862     -96.3001 
0.000174037      4.59210     -95.6237 
0.000345176      4.89050     -90.8201 
0.000173305      4.26129     -94.1718 
0.000172418      4.38097     -96.8168 
0.000505015      4.26058     -94.0377 
0.000334389      4.59309     -95.7478 
0.000499863      4.89037     -90.7030 
0.000167580      4.72868     -96.3134 
0.000325580      4.25988     -93.9035 
0.000163323      4.39090     -96.8013 
 0.0100040      4.89026     -90.5858 
0.000316898      4.59410     -95.8719 
0.000159951      4.40083     -96.7859 
0.000625893      4.25921     -93.7693 
0.000159073      4.71874     -96.3268 
0.000312786      4.43230     -94.2698 
0.00307452      4.71027     -90.6082 
0.000152764      4.69886     -96.3537 
0.000298917      4.41076     -96.7705 
0.000593744      4.25857     -93.6351 
0.000150784      4.59514     -95.9960 
0.000430183      4.43157     -94.1409 
0.000147708      4.68892     -96.3672 
0.000285792      4.58519     -96.0090 
0.000834310      4.25795     -93.5008 
0.000280399      4.67899     -96.3808 
0.000537371      4.42069     -96.7553 
0.000135379      4.58625     -96.1332 
0.000262870      4.43086     -94.0119 
0.000133312      4.66905     -96.3944 
0.000773255      4.25735     -93.3665 
0.000251239      4.65911     -96.4081 
0.000128871      4.57631     -96.1466 
0.00194984      4.64917     -96.4218 
0.000476827      4.43062     -96.7401 
0.000358571      4.43017     -93.8829 
0.00105689      4.25677     -93.2321 
0.000122400      4.58733     -96.2574 
0.00259074      4.63924     -96.4357 
0.000322675      4.61936     -96.4635 
0.000326251      4.42950     -93.7538 
0.000710516      4.62930     -96.4495 
0.00463727      4.70027     -90.6095 
0.000517805      4.44055     -96.7249 
0.00104378      4.25622     -93.0977 
0.00127210      4.45048     -96.7098 
0.000388608      4.42886     -93.6248 
0.00126127      4.25569     -92.9633 
0.000263357      4.42824     -93.4956 
0.000319524      4.42764     -93.3665 
0.00119916      4.25519     -92.8288 
0.000287984      4.42706     -93.2373 
0.000197919      4.42651     -93.1080 
0.00109135      4.25470     -92.6943 
0.00174622      4.46041     -96.6948 
6.30420e-05      4.42598     -92.9788 
0.00248334      4.44190     -91.6771 
0.000986747      4.25424     -92.5598 
0.00104344      4.25381     -92.4252 
0.000547086      4.69027     -90.6108 
0.000256369      4.25340     -92.2906 
 0.0163719      1.50213     -86.9471 
0.00519435      1.50270     -86.5664 
0.00165416      1.49215     -86.9267 
0.00463146      1.27193     -93.1548 
0.00209200      1.28191     -93.1302 
0.00201405      1.51268     -86.5891 
0.000410408      1.44056     -88.4089 
0.00118299      1.42014     -89.1931 
0.000783670      1.29190     -93.1060 
0.00201195      1.28141     -92.6838 
0.00221018      1.52329     -86.2360 
0.000755292      1.42032     -88.7897 
0.00180595      1.29139     -92.6630 
0.00346362      1.41014     -89.1873 
0.000363459      1.30138     -92.6425 
0.00103396      1.53395     -85.8878 
0.00314979      1.53326     -86.2605 
0.00193020      1.40004     -89.5908 
0.00266029      1.40014     -89.1815 
0.00402154      1.54392     -85.9144 
0.00250944      1.40032     -88.7724 
0.00147507      1.40057     -88.3634 
0.00516085      1.54324     -86.2847 
0.000279144      1.39032     -88.7636 
0.00109691      1.39058     -88.3517 
0.00110505      1.39090     -87.9399 
0.000884787      1.39129     -87.5283 
0.000411933      1.39176     -87.1170 
0.00107050      1.39230     -86.7060 
0.00150415      1.39291     -86.2954 
0.00457626      1.54263     -86.6553 
 0.0110807      1.55322     -86.3086 
0.000889282      1.39359     -85.8851 
0.00129375      1.38362     -85.8554 
0.00350461      1.38438     -85.4426 
0.000147101      1.31244     -93.4946 
0.00152767      1.38521     -85.0303 
0.000128382      1.32242     -93.4682 
0.000124716      1.38004     -89.5848 
0.000617774      1.39014     -89.1757 
0.00226590      1.38611     -84.6185 
0.000331140      1.38000     -90.0000 
0.000286219      1.33240     -93.4422 
0.000813352      1.39004     -89.5878 
0.00203716      1.38708     -84.2072 
0.000633442      1.32378     -94.3323 
0.000657208      1.39807     -83.8408 
0.000226982      1.39000     -90.0000 
0.00182421      1.38813     -83.7966 
0.000841356      1.39918     -83.4337 
0.000641102      1.56461     -85.6013 
8.85338e-05      1.40000     -90.0000 
8.21459e-05      1.41004     -89.5937 
3.96283e-05      1.56541     -85.2364 
0.00462398      1.58146     -83.0997 
0.00268850      1.41152     -82.6736 
0.000146522      1.58028     -83.4596 
0.000289444      1.58912     -83.8589 
0.000344436      1.58808     -84.2176 
0.00259937      1.63371     -86.1393 
0.00305554      1.36132     -92.5261 
0.000452807      1.58269     -82.7403 
0.00115741      1.41283     -82.2714 
0.000484014      1.57544     -81.9728 
0.000616170      1.57686     -81.6130 
0.00137012      1.41421     -81.8699 
8.84519e-05      1.55116     -87.7832 
0.000128176      1.57835     -81.2538 
0.000283620      1.55081     -88.1524 
0.000239983      1.57991     -80.8954 
0.000258113      1.58152     -80.5377 
3.75173e-05      1.54081     -88.1404 
7.34693e-05      1.55052     -88.5217 
0.000506025      1.54052     -88.5121 
0.000297017      1.58319     -80.1807 
0.00112330      1.41566     -81.4692 
0.000318332      1.58493     -79.8245 
0.000251314      1.54029     -88.8840 
0.000388386      1.58673     -79.4691 
0.000140134      1.53052     -88.5024 
2.16711e-05      1.63306     -86.4893 
4.29958e-05      1.58858     -79.1145 
2.14206e-05      1.52053     -88.4926 
0.00164952      5.11353     -87.8706 
0.00567165      4.89908     -100.943 
0.00178216      5.11391     -87.7586 
0.000160406      4.07541     -101.751 
0.00387306      4.06562     -101.780 
0.000307596      4.68961     -86.3322 
0.00166482      4.69026     -86.2103 
0.000430027      5.12316     -87.9865 
0.000145037      5.15218     -91.6683 
0.000418936      5.15248     -91.7795 
0.000673603      5.12352     -87.8748 
0.000534191      4.67963     -86.3244 
0.000135041      5.15281     -91.8906 
0.000516309      5.15314     -92.0018 
0.000817645      4.68028     -86.2022 
0.000505411      5.12390     -87.7630 
0.000124135      5.13352     -87.8789 
0.000482204      5.15350     -92.1129 
0.000955227      4.66965     -86.3165 
0.000923875      5.13390     -87.7674 
0.00241679      4.90099     -101.058 
0.000909130      4.05584     -101.809 
0.000340781      5.15388     -92.2240 
0.000669557      4.65967     -86.3086 
0.000428327      5.15428     -92.3350 
0.000322380      5.13430     -87.6559 
0.000425857      4.04605     -101.838 
0.000631800      4.64969     -86.3007 
0.000208397      5.14389     -87.7717 
0.000103728      4.03626     -101.867 
0.000102720      5.15470     -92.4461 
0.000102529      4.02647     -101.896 
0.000682971      5.14429     -87.6604 
0.000401481      4.63971     -86.2927 
0.000101578      4.01669     -101.925 
0.000101027      5.16427     -92.3305 
0.000100473      4.09298     -101.557 
0.000769179      4.91080     -101.035 
9.95345e-05      3.99506     -101.844 
0.000292398      5.16469     -92.4414 
0.000195311      4.10278     -101.529 
0.00146893      4.62973     -86.2847 
0.000288968      3.98527     -101.874 
0.000189439      5.13472     -87.5444 
0.000378741      4.61975     -86.2767 
0.000367194      4.12040     -101.337 
0.000367333      5.16512     -92.5522 
9.36013e-05      5.14471     -87.5491 
9.33298e-05      3.97549     -101.904 
9.26372e-05      4.60913     -86.3926 
0.000452176      4.91273     -101.150 
9.17993e-05      4.59915     -86.3848 
0.000445559      3.96365     -101.792 
0.000160450      4.73017     -86.2423 
0.000268263      4.58917     -86.3769 
8.99488e-05      5.17248     -88.2274 
0.000435291      4.92254     -101.127 
0.000174514      5.12516     -87.4279 
8.87862e-05      4.74015     -86.2502 
0.000342500      5.16558     -92.6630 
8.76417e-05      5.13515     -87.4329 
0.000258984      4.57919     -86.3690 
0.000340990      4.13021     -101.310 
8.68173e-05      5.19189     -88.4548 
8.67349e-05      4.75013     -86.2581 
8.54444e-05      4.83451     -100.729 
0.000169029      3.95386     -101.821 
0.000294571      4.76944     -86.3937 
8.43665e-05      5.20216     -88.3477 
0.000411737      4.56921     -86.3611 
8.40739e-05      4.94410     -101.196 
0.000165861      4.82283     -100.634 
8.35660e-05      5.10564     -87.3057 
8.28177e-05      4.95391     -101.174 
8.25850e-05      5.21216     -88.3509 
0.000624912      3.94203     -101.709 
0.000319095      5.16605     -92.7738 
0.000319723      4.13807     -101.147 
0.00117741      4.77942     -86.4012 
0.000162192      4.96372     -101.151 
8.13854e-05      5.09565     -87.3004 
0.000239969      4.81116     -100.539 
8.07623e-05      5.23245     -88.2477 
7.95887e-05      5.24276     -88.1418 
0.000157943      4.97547     -101.242 
0.000312910      4.55923     -86.3531 
0.000157257      5.06569     -87.2844 
0.000450027      4.79951     -100.444 
0.000154168      5.26308     -88.0401 
0.000230059      4.98528     -101.220 
0.000651718      4.14788     -101.120 
0.000506859      5.16655     -92.8846 
0.000371424      4.54925     -86.3451 
7.58390e-05      5.05524     -87.3923 
7.52790e-05      5.27307     -88.0438 
0.000149008      4.99509     -101.197 
0.000146896      5.05570     -87.2791 
0.000146842      5.28307     -88.0475 
0.000143247      4.78941     -86.4087 
0.000216619      5.00490     -101.175 
0.000553230      3.93022     -101.596 
0.000282834      4.53927     -86.3371 
0.000676335      4.78787     -100.348 
7.16598e-05      5.29341     -87.9430 
0.000137871      5.04571     -87.2737 
0.000345408      5.01471     -101.153 
0.000139798      5.30340     -87.9469 
0.000137704      5.04525     -87.3871 
0.000136656      4.52866     -86.4552 
0.000201982      5.31340     -87.9507 
0.000323907      5.16706     -92.9953 
0.000133736      4.52929     -86.3290 
0.000630669      4.15769     -101.094 
0.000262511      5.02452     -101.131 
0.000322085      4.51868     -86.4474 
0.000193561      5.32339     -87.9546 
0.000370751      5.03572     -87.2683 
0.000313205      3.92042     -101.625 
0.000521605      5.15761     -93.1120 
0.000251280      5.03433     -101.109 
0.000751321      4.77803     -100.369 
0.000124599      5.33339     -87.9584 
6.24963e-05      4.51931     -86.3209 
0.000419019      4.50870     -86.4395 
0.000240663      5.03627     -101.221 
0.000121214      5.33304     -88.0658 
0.000400900      3.91842     -101.482 
0.000175784      5.34303     -88.0694 
5.88441e-05      5.03526     -87.3819 
0.000342553      5.04608     -101.199 
0.00147150      4.16560     -100.932 
0.000418225      4.78879     -86.5282 
0.000326756      4.77624     -100.251 
5.74641e-05      4.50933     -86.3127 
0.000168840      5.35303     -88.0730 
0.000332505      4.49872     -86.4316 
0.000616084      5.02573     -87.2628 
0.000424584      5.05589     -101.177 
0.000107502      5.36302     -88.0766 
0.000107522      5.36270     -88.1834 
0.000734727      3.90862     -101.511 
0.000159035      4.49936     -86.3045 
5.30643e-05      5.37093     -91.0668 
0.000247558      5.15816     -93.2230 
0.000103406      5.38075     -90.9584 
0.000354609      4.48874     -86.4237 
0.000101972      5.37302     -88.0802 
0.000150325      5.39059     -90.8503 
0.000150561      5.06570     -101.155 
0.00133263      4.76640     -100.273 
0.000334369      5.06764     -101.266 
9.73653e-05      5.37336     -87.9736 
0.000239578      4.48938     -86.2963 
0.000190759      5.39075     -90.9566 
9.25921e-05      5.37372     -87.8671 
0.000230757      4.47876     -86.4157 
9.22019e-05      5.01575     -87.2574 
4.62898e-05      5.38335     -87.9774 
0.000223716      5.39093     -91.0629 
0.000269246      5.07745     -101.244 
0.000213700      5.15873     -93.3339 
8.84243e-05      5.00576     -87.2519 
0.00129993      5.49263     -88.2264 
0.000347773      4.47940     -86.2880 
4.44323e-05      5.14817     -86.7708 
0.000169529      4.99577     -87.2464 
0.000769077      3.89683     -101.396 
4.33480e-05      5.08726     -101.222 
0.000169296      5.08921     -101.332 
0.000166543      5.39112     -91.1691 
4.24648e-05      5.15816     -86.7770 
0.000285611      4.46878     -86.4077 
4.17125e-05      5.34453     -87.6408 
0.000234484      4.98578     -87.2409 
0.000162961      5.09902     -101.310 
0.000115352      5.16871     -86.6726 
0.000340242      5.39134     -91.2754 
7.92521e-05      5.11079     -101.398 
3.96499e-05      5.33454     -87.6364 
7.81821e-05      4.75946     -86.3861 
0.000265701      4.46942     -86.2797 
0.000278555      5.14934     -93.4514 
3.90649e-05      5.12060     -101.376 
0.000370747      5.17759     -101.701 
0.000215658      4.97363     -101.717 
0.000257156      4.45880     -86.3996 
0.000558382      4.97579     -87.2353 
7.36902e-05      4.74948     -86.3785 
0.000962325      4.17542     -100.906 
3.72068e-05      5.32497     -87.5245 
0.000856348      4.75479     -100.176 
3.51921e-05      5.31498     -87.5198 
0.000304034      5.17962     -101.809 
0.000298931      5.39157     -91.3816 
0.000267867      4.45944     -86.2714 
9.72554e-05      5.17870     -86.6790 
0.000259268      4.44882     -86.3915 
3.34590e-05      5.30499     -87.5151 
6.57514e-05      4.72019     -86.2344 
0.000131113      3.88703     -101.426 
0.000426551      4.96384     -101.740 
0.000916846      5.18168     -101.917 
0.000329028      3.88506     -101.281 
6.11550e-05      5.29544     -87.4024 
0.000120873      4.71021     -86.2264 
0.000423022      5.39182     -91.4879 
0.000258026      4.44946     -86.2630 
0.000202884      4.43884     -86.3834 
0.000319185      4.96580     -87.2298 
0.000159875      5.14995     -93.5625 
0.000131565      5.28545     -87.3974 
8.27905e-05      4.70023     -86.2184 
7.92239e-05      5.18868     -86.6854 
0.000360147      3.87525     -101.310 
0.000160349      4.75303     -100.057 
0.000205673      4.42886     -86.3752 
0.000223084      4.74318     -100.078 
0.000149364      4.43948     -86.2546 
0.000123048      5.39209     -91.5941 
2.48054e-05      4.97532     -87.3504 
0.00908576      3.81425     -92.7049 
0.00310862      3.80475     -92.8624 
0.000118638      3.81379     -92.5548 
0.000461635      3.88021     -90.5907 
0.000221200      3.88012     -90.4430 
0.000215292      3.88005     -89.7047 
0.000209755      3.88012     -89.5570 
0.000304707      3.88021     -89.4093 
9.90812e-05      3.88046     -90.8859 
0.000195399      3.88032     -89.2617 
0.000737052      3.79527     -93.0207 
0.000189014      3.88063     -91.0336 
0.000189039      3.88046     -89.1141 
9.22593e-05      3.88063     -88.9664 
0.000356760      3.87105     -88.6678 
0.000265340      3.88082     -91.1812 
0.000419840      3.79581     -93.1715 
0.000732778      3.87129     -88.5198 
0.000328106      3.88104     -91.3288 
0.00102988      3.78640     -93.3309 
0.000516329      3.88129     -91.4764 
0.000783661      3.87156     -88.3719 
0.000741601      3.89129     -91.4726 
0.000796298      3.77763     -93.6426 
0.00226355      3.87186     -88.2240 
0.00167231      3.89156     -91.6198 
0.000892049      3.86254     -87.9228 
0.000272184      3.76898     -93.9556 
0.000797003      3.76120     -94.4221 
0.00159612      3.69005     -90.3105 
0.000443408      3.90185     -91.7624 
0.000569600      4.09001     -89.8599 
0.000121616      3.76198     -94.5739 
0.000199351      3.97786     -93.6033 
3.94741e-05      3.77701     -93.4912 
0.000545897      3.75367     -94.8904 
0.000463301      3.78583     -93.1798 
0.000357507      3.97850     -93.7470 
0.000505318      3.61670     -93.4874 
0.00130588      4.09005     -89.7198 
0.000213477      3.87218     -88.0761 
0.000301949      3.97917     -93.8907 
9.26583e-05      3.86291     -87.7746 
0.000558921      3.69001     -90.1553 
0.000575300      3.60799     -93.8141 
0.00100145      3.94036     -95.8263 
0.000856786      3.75453     -95.0425 
0.000125923      3.85421     -87.3232 
0.000169089      3.89104     -91.3254 
2.28171e-05      3.97986     -94.0343 
