! Center RA: 22 25 47.25929,  Dec: -04 57 01.39091 (2000.0)
! Established model.
! Flux (Jy) Radius (mas)  Theta (deg)  Major (mas)  Axial ratio   Phi (deg) T \
! Freq (Hz)     SpecIndex
  0.136711    0.0223607      153.435 
  0.152976    0.0141422      135.000 
 0.0651150    0.0282843      135.000 
 0.0160018    0.0707107      135.000 
0.00812624    0.0100000      180.000 
 0.0102149   0.00999997     -90.0000 
 0.0378448    0.0781025      140.194 
 0.0369816    0.0199999     -90.0000 
 0.0347632    0.0223606     -63.4349 
0.00936538    0.0860233      144.462 
0.00528373    0.0943398      147.995 
0.00339046     0.102956      150.945 
0.00165773    0.0583095      59.0363 
 0.0588826     0.120830      155.556 
0.00162269    0.0707107      45.0000 
0.00158998    0.0860233      35.5377 
0.00155910    0.0943398      32.0054 
 0.0732550     0.102956      29.0546 
0.00247099    0.0223606     -116.565 
0.00120171     0.101980     -168.690 
 0.0519992     0.111803     -169.695 
0.00113391    0.0538516     -21.8013 
0.00108437    0.0728011     -15.9453 
 0.0299097    0.0921954     -12.5288 
 0.0184877     0.151327      97.5946 
 0.0138064     0.261725      83.4181 
0.00705149     0.143178      102.095 
 0.0101896     0.260768      85.6013 
 0.0668108     0.141421      98.1301 
0.00667084     0.271662      83.6598 
 0.0204660     0.270740      85.7636 
 0.0160658     0.270185      87.8789 
 0.0165934     0.270000      90.0000 
 0.0128586     0.140357      94.0856 
0.00180583     0.270185      92.1211 
0.00572527     0.281603      73.4956 
0.000410442     0.270740      94.2364 
0.000591186     0.271662      96.3402 
0.000190718     0.272947      98.4270 
0.000549401     0.274591      100.491 
0.000527863     0.276586      102.529 
0.000498204     0.278927      104.534 
0.000472699     0.281603      106.504 
0.00302470     0.284605      108.435 
 0.0325959     0.414367      109.747 
0.00625592     0.427200      110.556 
0.00108184     0.465188      115.463 
 0.0167357     0.370000      108.925 
0.00499863     0.474236      114.944 
0.00800727     0.483322      114.444 
0.00173487     0.660681      129.472 
0.00628806     0.654370      128.797 
0.00388273     0.395601      106.144 
0.00135599     0.398497      107.526 
0.00674794     0.405216      105.751 
0.00643742     0.646607      129.352 
0.00126974     0.412311      104.036 
0.00292752     0.638905      129.920 
0.00141704     0.424264      98.1301 
0.00657634     0.373363      110.376 
0.00434119     0.434166      97.9435 
0.000254066     0.645368      130.601 
0.00106916     0.631269      130.503 
0.00346318     0.637809      131.186 
0.00301653     0.376962      111.801 
0.000563250     0.688186      125.538 
0.00439915     0.444072      97.7652 
0.000691588     0.682422      124.854 
0.00270107     0.644438      131.855 
0.000169815     0.676757      124.160 
3.89864e-05     0.671193      123.453 
0.000610721     0.655134      121.264 
0.000744220     0.651153      132.510 
 0.0134864      1.09458      84.7582 
0.00627417      1.22119      117.824 
0.00174232      1.79354      97.0458 
0.00173701     0.379473      108.435 
0.00189011      1.68244      109.081 
0.000480637      1.35074      109.911 
0.00158879      1.79234      96.7285 
0.00246967      1.35418      110.308 
0.000637969      1.80114      96.3753 
0.000826139      1.67299      109.193 
0.00908089      1.21655      117.408 
0.00191291      1.35768      110.704 
0.00101124      1.80006      96.0590 
0.00180563      1.67631      109.516 
0.00149581      1.80801      95.3953 
0.00122654      1.36125      111.098 
0.000695829      1.80710      95.0796 
0.000500533      1.81620      94.7374 
0.00286992      1.66688      109.631 
 0.0129609      1.81541      94.4229 
0.000889508      1.36488      111.490 
0.000901813      1.36858      111.879 
0.00110927     0.364006      110.924 
0.00106810     0.417852      111.038 
0.00316151      1.21198      116.988 
0.00241832      1.67027      109.954 
0.00659460      1.10454      84.8056 
0.000882327      1.37233      112.267 
0.00179678     0.358469      112.989 
0.000813923     0.421545      112.306 
0.00368896      1.22090      116.775 
0.000576492      1.37615      112.652 
0.00467547     0.425441      113.552 
0.000593074      1.38004      113.035 
0.00154624      1.67371      110.276 
0.000377707      1.38398      113.416 
0.00343652     0.353412      115.115 
0.000409336      1.38798      113.795 
0.00126047      1.67720      110.596 
0.00488320      1.21643      116.354 
0.000366827      1.39205      114.171 
0.000575356      1.39617      114.546 
0.00137599      1.10549      84.2894 
0.00222221      1.68074      110.915 
0.000737223      1.35558      111.644 
0.000845559      1.40528      114.376 
0.00161514      1.12009      82.3039 
0.000250396      1.35192      111.251 
0.000253131      1.11072      87.9362 
0.000203039      1.76556      94.5480 
5.73354e-05      1.33899      111.007 
1.77987e-05      1.20748      116.565 
0.00240211     0.566127      125.655 
0.00237928     0.572014      126.469 
0.00413269      1.68716      98.1781 
 0.0135872     0.347851      108.435 
0.00273043     0.552178      125.417 
0.000136145      1.68576      97.8417 
0.000268013      1.57166      108.550 
0.00276805     0.546443      124.563 
0.00265491      1.56850      108.204 
 0.0174445     0.422966      96.7890 
0.000708600     0.578014      127.266 
0.000751146      1.67726      98.2267 
0.000803825     0.584123      128.047 
0.00130278      1.56541      107.856 
0.00144459      1.67872      98.5645 
0.000704382     0.590339      128.811 
0.000685108     0.596657      129.560 
0.000791570      1.56237      107.507 
0.000770531      1.68024      98.9017 
0.000656022     0.603075      130.292 
0.000234895      1.55939      107.157 
0.000595342      1.68181      99.2383 
5.67040e-05      1.54690      106.912 
0.000375757      1.54402      106.557 
0.000619480     0.609590      131.009 
0.000199224      1.54120      106.201 
0.000288487      1.68345      99.5742 
0.000188978      1.53844      105.843 
0.000701466     0.616198      131.711 
0.000351580      1.67529      99.9684 
9.09433e-05      1.53574      105.484 
0.00394652      1.53310      105.124 
0.000430144      1.67705      100.305 
0.00225801     0.622896      132.397 
0.000408326      1.67887      100.641 
0.000326429      1.68074      100.976 
0.000212264      1.68268      101.310 
0.000203012      1.68467      101.643 
0.000546885      1.68671      101.976 
0.000618980      1.67693      102.047 
0.000118824      1.69358      93.7241 
1.61752e-05      1.62225      108.323 
0.00102190      1.60705      110.014 
0.000599424     0.558032      126.254 
0.00140424      1.59424      109.799 
0.000465382     0.564004      127.073 
0.00141393      1.59088      109.460 
0.000529696     0.570088      127.875 
0.000512625     0.576281      128.660 
0.000529062     0.582580      129.428 
0.000131283      1.65085      112.059 
0.000127465      1.57813      109.239 
0.000991304      1.66012      111.930 
8.17930e-05      1.57487      108.895 
0.00100864      1.69650      101.906 
0.000520219     0.588982      130.179 
3.96710e-05      1.56218      108.667 
0.000115539      1.55901      108.319 
0.000145616      1.55589      107.969 
6.96554e-05      1.55284      107.618 
3.40737e-05      1.54984      107.266 
0.000495021     0.595483      130.914 
0.000480672     0.602080      131.634 
0.000461002     0.608769      132.337 
0.000241499      1.66904      100.704 
0.000374298     0.615549      133.025 
0.000242790      1.67093      101.041 
0.00137057     0.349285      113.629 
0.000819077     0.411096      138.945 
0.00164315     0.345398      112.109 
0.000536775     0.418688      139.844 
0.000388952     0.426380      140.711 
0.00107936      1.35385      112.587 
0.000275794     0.351141      109.983 
0.000368983     0.434166      141.546 
0.000300104     0.442041      142.352 
0.00167293      1.24531      119.859 
0.000391986     0.450000      143.130 
0.00187816      1.35772      112.977 
0.00924013     0.499300      147.265 
0.00179433      1.24036      119.458 
0.00218162      1.36165      113.364 
0.00359124     0.344819      106.858 
0.00186190      1.23548      119.055 
0.00199387      1.36565      113.749 
0.000513860     0.338379      108.970 
0.00222362      1.43126      117.460 
0.00299332      1.23065      118.648 
0.00573725     0.342053      105.255 
0.00147175     0.335261      107.354 
0.00420641     0.504777      146.310 
0.00304745     0.332415      105.709 
0.000298198      1.34852      113.143 
0.000569712      1.22674      119.281 
7.90174e-05      1.22589      118.237 
0.000107366      1.34462      112.751 
0.000439040     0.388973      136.042 
0.000745208     0.396232      137.045 
0.000586544     0.403609      138.013 
0.000402515     0.351710      104.826 
0.000166260      1.36059      114.305 
0.000362040      1.36473      114.687 
0.00196672      1.40471      118.024 
0.000123798      1.25399      119.632 
0.000443366      1.24908      119.233 
0.000501957      1.24169      120.489 
0.00141771      1.77508      120.466 
0.00170992      1.19633      141.789 
0.00505514     0.440000      90.0000 
0.00113763      1.78017      120.743 
0.00304612     0.820244      135.000 
0.000233007     0.524786      120.964 
0.00110071      1.77674      121.185 
0.000583407     0.530000      121.891 
0.000885302     0.535350      122.800 
0.00197076     0.344819      119.539 
0.00102476      1.78194      121.460 
0.00116814      1.18849      141.491 
0.000838008      1.78718      121.734 
0.00241839     0.540833      123.690 
0.00389456     0.450000      90.0000 
0.00506054      1.68253      114.585 
0.000154343      1.79246      122.005 
0.00138093      1.18229      141.870 
0.000199021      1.79778      122.276 
0.00255499      1.81221      109.335 
0.00164723     0.382884      139.236 
0.000255248      1.80314      122.544 
9.38384e-05     0.375367      138.240 
0.000914136      1.80854      122.811 
0.00877488      1.81397      123.077 
0.000418843     0.341321      121.827 
0.00420352      1.67344      114.727 
0.00302055     0.827345      135.490 
0.00179329      1.17444      141.569 
0.00209504     0.336155      120.379 
0.000727894     0.384187      141.340 
0.00113301     0.460000      90.0000 
0.000561140     0.820366      135.988 
0.00145418      1.16662      141.263 
0.00265120      1.80560      123.250 
0.000726252     0.430000      90.0000 
0.000384479     0.382099      137.121 
0.000988137      1.18068      141.189 
0.000102137      1.17290      140.882 
0.000255533      1.81554      109.633 
0.00139262      1.15884      140.954 
0.00130069     0.392046      142.253 
0.00653549     0.339559      103.627 
0.000507919     0.390513      140.194 
0.000442455     0.398246      141.115 
0.00281382     0.400000      143.130 
0.000976655      1.16516      140.572 
0.00141343      1.82236      110.225 
0.00134794     0.834506      135.971 
0.00192691     0.337343      101.976 
0.00197173      1.24459      134.349 
0.000288002      1.47340      121.964 
0.00154059      1.48718      122.087 
0.00788467     0.329848      104.036 
0.00179900      1.23762      134.018 
0.000298300      1.54237      122.557 
0.00192921      1.54777      122.869 
0.000778757      1.41524      119.644 
0.00213929     0.328938      109.537 
0.000104989      1.23069      133.683 
0.00281613      1.18444      130.549 
0.000118597      1.25160      135.324 
0.00177308      1.40656      119.846 
0.000432725      1.55322      123.179 
0.000123487      1.25873      135.644 
0.000103430      1.26590      135.960 
9.04638e-05      1.55872      123.486 
0.00244492      1.56426      123.792 
0.000118751      1.27311      136.273 
0.00249675      1.28035      136.582 
0.000179139      1.28763      136.888 
0.000449143      1.29495      137.191 
0.000599435      1.17686      130.865 
0.00177954      1.66595      97.9356 
0.000287088      1.65747      98.3256 
0.00170457      1.48165      92.7079 
0.000884539      1.66460      97.5946 
0.00135910      1.48216      93.0941 
0.00891740    0.0900000      90.0000 
0.000125251      1.67200      96.8700 
0.000309917      1.68428      94.0856 
0.00110018     0.500899      116.053 
0.00352658      1.69426      94.0615 
0.00200209      1.60290      99.6974 
6.84195e-05      1.61276      99.6375 
0.00118296     0.505371      117.072 
0.00134081     0.510000      118.072 
0.00175007     0.514782      119.055 
0.00176343      1.49164      92.6898 
0.000478060      1.49121      92.3060 
 0.0227415    0.0905538      96.3402 
0.000219701     0.475395      112.249 
0.000313308      1.49215      93.0733 
0.000275776     0.479270      113.356 
0.00118127      1.67451      97.5494 
0.000969353      1.59305      99.7580 
0.00143095     0.458803      110.410 
0.000280145      1.67586      97.8883 
7.77338e-05     0.487545      115.514 
0.000425146      1.50120      92.2906 
0.000270329      1.59477      100.112 
0.000806727     0.449444      110.854 
4.52631e-05      1.68861      98.5140 
2.09501e-05      1.69012      98.8493 
 0.0219248     0.220907      95.1944 
0.000435437     0.172627      100.008 
0.00216239     0.162788      100.620 
0.000621193     0.230217      92.4896 
0.00152418     0.240208      92.3859 
0.00543697     0.164924      104.036 
0.00103293     0.250200      92.2906 
0.00404714     0.250000      90.0000 
0.00173184     0.250200      87.7094 
0.00214458     0.167631      107.354 
0.000717454     0.250799      85.4261 
0.00108433     0.170880      110.556 
0.000431459     0.251794      83.1572 
0.000202895     0.253180      80.9097 
0.000130770     0.254951      78.6901 
6.40821e-05     0.257099      76.5043 
0.000125630     0.259615      74.3578 
6.15773e-05     0.262488      72.2553 
0.00241204     0.265707      70.2011 
0.000565013     0.174643      113.629 
6.00552e-05     0.251794      96.8428 
5.87992e-05     0.254951      101.310 
5.67637e-05     0.257099      103.496 
5.56318e-05     0.259615      105.642 
0.00149856     0.262488      107.745 
0.00199525     0.178885      116.565 
0.00108010     0.183576      60.6423 
0.00185700     0.107703      111.801 
0.000785097      1.85564      124.461 
0.000439518     0.111803      116.565 
0.000693315      1.65895      124.935 
0.000150411      1.85000      124.205 
0.000145422      1.84440      123.949 
0.000231859      1.83883      123.690 
0.00203806      1.66469      125.218 
9.21152e-05     0.238537      146.976 
0.00190097      1.67872      81.4355 
0.000500964     0.246982      148.241 
4.48301e-05      1.68024      81.0983 
8.90780e-05      1.83330      123.430 
0.000171904      1.82781      123.168 
0.000204041      1.82236      122.905 
0.000266859      1.81695      122.640 
0.000419505     0.104403      106.699 
0.000424513     0.255539      149.421 
0.000361863      1.67048      125.498 
0.000313709      1.81157      122.374 
0.000343122      1.80624      122.106 
0.000389674     0.264197      150.524 
0.000450162     0.101980      101.310 
0.000430380      1.80094      121.837 
0.000375043     0.272947      151.557 
0.000488538     0.100499      95.7106 
0.000807449      1.79569      121.566 
0.00109228      1.67726      81.7733 
0.000272898     0.281780      152.526 
0.00139704      1.79047      121.293 
0.000111588     0.295296      151.699 
0.000291924     0.290689      153.435 
0.000493998     0.100000      90.0000 
0.000633576     0.299667      154.290 
0.000324245      1.65324      124.651 
0.000821654      1.78530      121.019 
0.000506377      1.67586      82.1117 
0.000356257     0.100499      84.2894 
0.000149109      1.64757      124.365 
0.000477170      1.77003      120.187 
4.47032e-05      1.64195      124.077 
0.00339336      1.71817      127.670 
0.000287389      1.76006      119.624 
0.000751292      1.71207      127.405 
0.000724182      1.70602      127.139 
0.000325484      1.76502      119.906 
0.00148522    0.0921954      102.529 
0.000607353      1.70000      126.870 
0.00334241     0.308869      150.945 
0.000486444      1.69402      126.599 
0.000282852      1.68808      126.327 
0.000348692      1.68217      126.052 
0.000175479      1.67631      125.776 
0.000184865      1.67451      82.4506 
3.92833e-05      1.67323      82.7900 
0.000785662      1.72430      127.933 
0.00166598     0.408044      107.103 
0.000492447     0.411096      108.435 
0.000737533      1.82784      108.831 
0.00201459      1.14477      141.028 
0.000133185      1.26570      121.430 
0.000606377      1.25897      136.287 
0.000400239      1.83109      109.128 
0.000328686      1.67323      97.2100 
0.000673379     0.792086      136.023 
0.000526680      1.25718      121.667 
0.000293110     0.392938      104.744 
0.000763953      1.68193      96.8292 
0.000373067      1.34648      117.897 
0.000435679      1.83439      109.423 
0.00138071      1.13701      140.711 
0.00116372      1.26621      136.600 
0.000179876      1.59138      99.4031 
0.000434749      1.68077      96.4908 
5.69692e-05     0.447772      113.703 
0.000622737      1.83774      109.717 
3.60289e-05      1.35532      117.699 
0.00114422      1.36000      118.072 
0.000168056     0.451885      114.864 
0.00103269     0.784920      135.516 
0.000172545     0.390513      103.325 
0.000696051      1.58978      99.0476 
0.00341688      1.27350      136.909 
0.000702485      1.84114      110.010 
0.000769259      1.68668      95.1022 
0.00183277     0.378550      102.200 
0.000150363      1.83175      110.117 
0.000317262     0.368782      102.529 
0.000627796      1.12929      140.389 
0.000341104      1.83521      110.410 
2.03415e-05     0.359026      102.875 
0.00139739     0.356931      101.310 
0.00116874      1.37354      118.244 
0.000430378      1.83872      110.702 
7.84465e-05      1.24868      121.908 
9.57450e-05     0.413038      96.9530 
0.000356638     0.411947      95.5722 
0.00132783     0.366742      101.004 
0.00112756     0.806226      136.005 
0.000162139      1.36883      117.876 
0.000409674      1.84459      110.302 
0.000587855      1.68315      97.1672 
2.11415e-05     0.407922      101.310 
1.01293e-05     0.415933      99.6888 
9.15342e-05     0.414367      98.3256 
0.000621430      1.84228      110.993 
0.00326975     0.411096      94.1849 
0.000525890      1.58824      98.6913 
0.000519157      1.84589      111.283 
0.00547176     0.355106      99.7276 
8.77503e-05     0.396232      100.176 
0.000165370     0.406079      99.9262 
0.000409635      1.15256      141.340 
0.000788948     0.813449      136.494 
0.000277911      1.84808      110.592 
0.000393584      1.38235      118.048 
0.000359249      1.38708      118.413 
0.00143297      1.84954      111.571 
0.000546010     0.820731      136.975 
0.000217914      1.39589      118.217 
0.000574624     0.828070      137.447 
0.000385319      1.39119      117.854 
0.000442731      1.58676      98.3344 
0.00584632     0.353553      98.1301 
0.000241008     0.828794      138.424 
0.000111978      1.38654      117.489 
4.03448e-05     0.835464      137.911 
0.000212890     0.836301      138.879 
0.00264140     0.352278      96.5198 
0.00189116     0.458039      143.881 
0.00245685      1.30752      83.8534 
0.000297487     0.178045      141.843 
7.63966e-05     0.444072      144.162 
0.00139428     0.452217      144.904 
1.14471e-05     0.396989      139.086 
5.96461e-05     0.386005      143.427 
5.68392e-05      1.30863      83.4181 
0.000273259     0.394081      144.293 
0.00204590      1.83358      39.2454 
-0.000988276      1.84318      6.85512 
-0.00182045      4.61686      66.3777 
-0.00125194      3.60555      162.570 
-0.000414651      1.23746      44.6726 
0.000914223      3.09071     -136.180 
-0.000556055      2.82299     -2.63943 
-0.000571733      6.19397      42.3172 
-0.000871763     0.686586     -77.3807 
-0.000550874     0.362215      6.34020 
-7.02371e-05      2.58496      146.679 
-0.000909733      2.57661      146.557 
-0.000526724      6.17985      42.3111 
