! Center RA: 22 02 43.29137,  Dec: +42 16 39.97996 (2000.0)
! Established model.
! Flux (Jy) Radius (mas)  Theta (deg)  Major (mas)  Axial ratio   Phi (deg) T \
! Freq (Hz)     SpecIndex
 0.0237883    0.0806227      7.12501 
 0.0249462    0.0905539      6.34019 
 0.0347720     0.111803      10.3048 
 0.0454452     0.121655      9.46232 
 0.0720706     0.131529      8.74616 
 0.0157403     0.141421      8.13011 
  0.143981     0.152971      11.3099 
 0.0475789     0.162788      10.6197 
 0.0498983     0.172627      10.0080 
0.00712632     0.182483      9.46232 
  0.320394     0.194165      11.8887 
0.00677913     0.152971      168.690 
0.00818255     0.155242      165.069 
0.00157957     0.158114      161.565 
 0.0810685     0.352278     -173.480 
 0.0332958     0.342345     -173.290 
 0.0536667     0.353553     -171.870 
0.00212904     0.341321     -174.958 
0.00478238     0.452217     -161.966 
0.000730972     0.330605     -176.532 
0.000237254     0.320156     -178.210 
0.00562062     0.271662      173.660 
 0.0222920      2.24350     -166.335 
0.00454076      2.16723     -168.016 
0.000930340      2.34796     -165.194 
0.00180695      2.36019     -165.022 
 0.0390016      2.39437     -164.745 
0.00402273      2.06828     -162.266 
0.00720114      2.17702     -168.071 
0.00911313      2.05876     -162.181 
0.00431284      2.18680     -168.125 
0.00363152      2.19659     -168.179 
0.00730365      2.04924     -162.096 
0.00306974      2.20638     -168.232 
0.00243277      2.21617     -168.284 
0.00553711      2.03973     -162.009 
0.00148555      2.22596     -168.337 
0.00681874      2.23575     -168.389 
0.00218531      2.03022     -161.922 
0.00743504      1.59050     -168.761 
0.000817974      2.20204     -174.005 
0.00585277      2.19107     -174.237 
0.00854959      2.69462     -162.506 
0.000794129      2.19210     -173.977 
0.000470760      2.39871     -171.127 
0.00436086      2.41015     -170.929 
0.00893209      1.15109     -177.510 
0.000350337      2.18112     -174.211 
0.00238061      1.57877     -169.046 
0.000712306      2.02092     -171.750 
0.00242274      2.03226     -171.511 
0.00762019      2.02237     -171.469 
0.00423278      2.43148     -170.770 
0.00159541      2.18014     -174.472 
0.000966296      1.56707     -169.335 
0.00606930      2.60768     -175.601 
0.000316036      1.54557     -169.563 
0.000622884      1.53395     -169.862 
0.000611867      2.19009     -174.498 
0.000611765      1.52237     -170.166 
0.00341764      2.70718     -162.368 
 0.0122578      2.88617     -165.964 
0.000601669      1.51083     -170.475 
0.000887664      2.17920     -174.734 
0.000296981      1.48788     -171.107 
0.000294904      2.62088     -156.859 
0.000294541      1.49933     -170.789 
0.000292297      1.55541     -169.629 
0.00456630      2.63401     -156.744 
0.000572879      2.89831     -165.820 
0.000290364      1.46513     -171.759 
0.000288316      1.58858     -169.114 
0.00220762      2.18915     -174.758 
0.00112717      1.46373     -172.147 
0.00191266      1.39979     -164.673 
0.000281953      1.61012     -168.899 
0.00368677      1.14110     -177.489 
0.000814454      1.63169     -168.690 
0.00160017      1.45248     -172.484 
0.00302366      2.44297     -170.576 
0.00456509     0.263059      171.254 
0.00175399      1.65327     -168.486 
0.00292278      2.18826     -175.019 
0.00340169      2.58699     -175.788 
0.00628662      1.39718     -165.069 
0.000511124      1.46240     -172.535 
0.00147002      1.45121     -172.875 
0.00279179      1.15156     -177.013 
0.00383170      2.65633     -156.716 
0.00614403      2.68509     -162.442 
 0.0112032      2.42161     -170.732 
0.00221141      1.67487     -168.288 
0.00182155      1.46113     -172.924 
0.00421025      2.57630     -175.994 
0.00232497      2.18742     -175.280 
0.00418623      1.14158     -176.987 
0.000857155      1.45993     -173.313 
0.00203500      2.03376     -171.232 
0.00275220      1.46986     -173.358 
0.00288072      2.66948     -156.604 
0.000405279      1.68467     -168.357 
0.00426562      1.69650     -168.094 
0.00237955      2.18662     -175.541 
0.00358593     0.272947      171.573 
0.00565781      2.04365     -171.275 
0.00229680      2.55566     -176.186 
 0.0105018      1.46874     -173.746 
0.00489442      1.13159     -176.961 
0.00229629      1.39463     -165.466 
0.00103998      2.69180     -156.578 
0.000646240      2.43249     -177.408 
0.00533841      2.70496     -156.468 
0.00111931      2.19584     -175.821 
0.000164460      2.54503     -176.396 
0.00208983      2.56564     -176.201 
0.00882172      2.49393     -157.857 
0.000604589      2.18586     -175.802 
0.00127782      1.39216     -165.864 
0.00377052      2.40208     -177.614 
0.00231277      2.87406     -166.109 
0.00642138      2.19513     -176.082 
0.000565145      1.70628     -168.163 
0.000918486      1.17427     -175.115 
0.00492226      1.71814     -167.905 
0.00258134      2.58627     -176.009 
0.00314210      1.12161     -176.934 
0.00329170     0.264764      169.114 
0.00163038      1.38004     -166.165 
0.00274915      2.05507     -171.042 
0.00420796      2.40027     -170.891 
0.000377973      2.69765     -162.304 
0.00129309      2.86196     -166.255 
0.00647096      1.17516     -174.629 
0.00337630      2.80494     -161.500 
0.000347847      1.37768     -166.569 
0.00597709      2.71413     -156.552 
0.00156781      1.36795     -166.472 
0.00586465      2.84016     -166.355 
0.00239656      2.37895     -171.052 
0.00205618      2.06652     -170.811 
0.000396737      1.55425     -172.235 
0.00148858      2.60693     -175.820 
0.000562798      1.35591     -166.784 
0.000623761      1.56416     -172.284 
0.000935919      1.34618     -166.686 
0.00124527      1.11162     -176.906 
0.00261380     0.274591      169.509 
0.000920459      1.57407     -172.333 
0.00254862      2.07800     -170.583 
0.000989189      1.73980     -167.721 
0.000686639      1.33645     -166.588 
0.00186661      2.40169     -177.852 
0.00128041      2.61691     -175.836 
0.00197835      2.80813     -161.307 
0.000978446      2.39040     -170.853 
0.000423115      1.32673     -166.487 
0.00190996      1.73003     -167.651 
0.00103349      1.58398     -172.381 
0.000707919      1.40132     -162.987 
0.00139738      1.29757     -166.178 
0.000692820      2.96892     -165.168 
0.000188464      2.61885     -162.672 
0.000802665      1.05019      178.909 
0.00107677      2.36907     -171.015 
0.000190048      2.08787     -170.628 
0.00216160      2.08952     -170.357 
0.000815024      2.18515     -176.064 
0.000811090      2.63759     -175.651 
0.00127902      1.59389     -172.429 
0.000160453      2.60634     -162.816 
0.00679444     0.100499      5.71059 
 0.0325796     0.343657     -171.634 
 0.0134007     0.333766     -171.384 
 0.0150302     0.332415     -173.089 
 0.0289786     0.311448     -174.472 
0.00129354     0.364005     -164.055 
0.000275367     0.300167     -178.091 
0.000667321     0.290000     -180.000 
0.000245966     0.280178      177.955 
 0.0121595     0.280000     -180.000 
0.00143309     0.351710     -165.174 
0.00123095     0.211896      160.710 
0.000573701    0.0824621      165.964 
0.00111693    0.0921954      167.471 
0.00410264     0.101980      168.690 
 0.0102226     0.104403      163.301 
0.00716340     0.107703      158.199 
 0.0111510    0.0800001      0.00000 
 0.0128134     0.111803      153.435 
0.00107853    0.0806227     -7.12501 
 0.0102750    0.0900001      0.00000 
0.00414533     0.100000      0.00000 
 0.0148722     0.120416      4.76364 
 0.0103249      2.30339     -159.677 
0.00501531      2.51432     -169.226 
0.00469603      2.50264     -169.408 
0.000367504      2.35919     -170.977 
0.00304175      2.91494     -171.119 
0.00122114      2.14394     -169.791 
0.000500869      2.34776     -171.180 
0.00886571      3.03488     -159.356 
0.00336180     0.941488     -167.735 
0.00101714      2.53584     -169.089 
0.00110792      2.33636     -171.384 
0.00922725      2.29401     -159.590 
0.000329123      2.32499     -171.591 
0.00172369      2.23808     -175.130 
0.000469338      2.13410     -169.743 
0.00434031      2.92638     -170.956 
0.00175240      2.12250     -169.961 
0.00452639      1.63306     -176.489 
0.00700304      2.23725     -175.385 
 0.0107180     0.953415     -167.276 
0.000699951      1.57690     -169.403 
0.000526340      2.35765     -171.217 
0.00185738      1.58673     -169.469 
0.00189254      2.45791     -169.925 
0.000803018      2.11092     -170.181 
0.000119032      2.41338     -170.460 
0.000341250      1.46014     -166.535 
0.000113503      1.63371     -176.139 
0.00251144      2.94771     -170.825 
0.00342616      3.02200     -159.466 
0.000945188      1.45041     -166.443 
0.000421253      2.10107     -170.134 
0.000808978      1.59656     -169.535 
0.00262903      2.66267     -161.837 
0.000955197      2.44632     -170.114 
0.00265960      2.28464     -159.503 
9.89726e-05      2.69537     -167.356 
0.000195346      1.45279     -166.059 
0.00123354      2.75305     -166.771 
0.00271405      2.71774     -173.450 
0.00187600      1.44309     -165.964 
0.00118535      1.60462     -169.951 
0.000178473      2.32215     -172.079 
0.000350256      2.98639     -164.661 
0.000486497      2.49098     -169.592 
0.000438411      1.64305     -176.511 
0.000455690      2.33345     -171.870 
0.00464363      2.95919     -170.665 
0.000686129      2.70692     -161.699 
0.000591835      2.43477     -170.306 
0.00168939      1.64247     -176.859 
0.00288749      2.22576     -175.878 
0.000242879      3.02063     -164.445 
0.000214850      2.74104     -166.927 
0.00205066      2.71956     -161.565 
0.000380848      2.34478     -171.663 
7.87242e-05      2.35614     -171.457 
0.000232135     0.335261     -162.646 
0.000439058      3.03295     -164.314 
0.000770135      1.61447     -170.013 
0.000910519     0.347851     -161.565 
0.000993757      2.42324     -170.499 
0.00111430      1.43339     -165.867 
0.00269639      2.41174     -170.694 
0.000613108      2.26241     -159.563 
0.00273888      2.22506     -176.135 
0.000137695      2.06814     -170.538 
0.000467493      1.65194     -177.224 
0.000199289      3.04529     -164.184 
0.000263485      2.97069     -170.506 
6.62774e-05      2.38883     -171.090 
0.00476076     0.500100      168.465 
0.000108189      2.35468     -171.698 
0.000722111     0.508035      169.796 
0.000107212      2.31948     -172.569 
0.000106157      2.30829     -172.783 
0.000514762      2.29593     -173.246 
0.000994889      1.22691      173.918 
0.000203989      2.55932     -168.734 
9.97727e-05      2.36603     -171.493 
9.91739e-05      2.27271     -173.938 
0.00170483      2.57109     -168.559 
 0.0103193     0.498197      169.592 
0.000194796      2.26073     -174.415 
0.000436484      2.24891     -174.898 
0.000189586      2.61633     -168.089 
0.00316055      1.21696      173.868 
0.000184783      2.62819     -167.920 
0.000733565      2.66175     -167.635 
0.00150523      2.31625     -159.531 
0.00223672      2.67367     -167.471 
0.00202514      2.70732     -167.196 
0.00144348      1.00125      177.138 
0.00109157      2.66372     -174.182 
0.00122881      2.09122     -170.087 
0.000791365      2.07966     -170.311 
0.00122006     0.963172     -167.407 
0.000570402      3.07963     -163.978 
0.000379726      2.67470     -173.991 
0.000260059      1.66108     -177.930 
0.000564353     0.354683     -158.499 
0.000562012      1.63417     -170.134 
0.000369625      1.65109     -177.917 
0.000428087      1.20814      173.346 
7.82252e-05      2.36457     -171.733 
7.76351e-05      2.27167     -174.189 
7.73120e-05      2.38730     -171.327 
0.00112389     0.364005     -159.075 
0.00400078     0.367695     -157.620 
0.000183604      2.21508     -176.117 
0.000695554      2.43310     -170.538 
0.00287573      2.21443     -176.375 
0.00400988      2.71930     -167.037 
0.00223157      2.06981     -170.265 
0.00140406      2.20384     -176.618 
0.00111447      2.04841     -170.446 
0.000121686      2.38581     -171.564 
0.000354587      2.39719     -171.363 
2.66557e-05      2.31698     -173.059 
0.000100178      2.44463     -170.345 
2.48707e-05      2.28265     -173.965 
0.00225444      3.18159     -173.322 
0.00404967      2.89339     -177.227 
0.00591965      3.17050     -173.480 
0.00492979      2.90388     -177.039 
0.000935081      3.29091     -172.141 
0.000283297      3.15945     -173.640 
4.40274e-05      3.13847     -173.781 
0.000411112      3.12746     -173.943 
0.000187080      3.11647     -174.106 
0.00992584     0.164924      104.036 
0.00396184      2.80585     -172.216 
0.00430077     0.255539     -120.579 
0.00444275      1.20702      173.817 
0.000612510      1.62779     -171.521 
0.000931210      1.63918     -171.227 
0.00114685     0.963016     -164.954 
0.00429954      1.19821      173.290 
0.00218804      3.05110     -175.112 
0.000651937      2.30361     -173.770 
0.000464648      1.71003     -179.665 
0.000774724      1.65061     -170.937 
0.00718188     0.158114      108.435 
0.00213167      1.07787     -173.073 
0.00159813      1.70000     -180.000 
0.00148408     0.975295     -164.539 
0.00113461      2.31465     -173.550 
0.000148772      1.65221     -170.595 
0.000415453      1.66208     -170.651 
0.000517228      2.68561     -167.309 
0.000785887      2.79460     -172.392 
0.00100029      1.07671     -173.601 
0.00140114     0.161555      111.801 
0.000882253      1.66373     -170.311 
0.00318050     0.261725      173.418 
7.76342e-05      2.69757     -167.149 
0.000319171      1.69000     -180.000 
0.000210346      2.78338     -172.569 
7.17059e-05      3.06193     -174.941 
0.000564688      2.98739     -175.969 
6.87193e-05      3.07278     -174.772 
0.000101810      2.28116     -159.738 
 0.0309461      1.91638     -164.876 
0.00107120      1.92603     -164.954 
0.00295320      2.02529     -166.581 
0.000202078      1.90672     -164.798 
0.000313017      1.91901     -164.588 
0.00176701      1.97408     -163.217 
3.37119e-05      1.89447     -165.010 
0.000860370      1.78997     -166.430 
0.000923012      1.78025     -166.354 
0.00195649     0.161245      119.745 
0.00286616     0.158114      124.695 
0.00494153      2.26808     -167.005 
0.00141066      2.28009     -166.817 
0.00295361      1.06569     -174.075 
0.00137060      1.61124     -173.228 
0.00386092     0.156525      116.565 
0.000502279     0.974166     -162.681 
0.00170074      1.60131     -173.186 
0.00339988     0.270740      175.764 
0.00236725      2.77346     -172.542 
0.00164796     0.983717     -162.854 
0.000556922      1.60016     -173.541 
0.000100107      2.63797     -167.966 
0.00128867      2.64985     -167.800 
0.000802727      2.30471     -173.523 
0.000551736      2.31579     -173.305 
0.000239265      1.71353     -176.319 
6.46272e-05      1.72351     -176.341 
9.29539e-05     0.280713      175.914 
0.00133508     0.253180      170.910 
0.000607453      3.30619     -166.888 
0.00310653     0.152643      121.607 
0.00274182      3.42608     -170.593 
0.00483178      3.32051     -166.592 
0.000240154     0.156205      129.806 
0.00389987     0.152315      113.199 
0.00124471      3.41459     -170.731 
0.000602723      3.05197     -174.925 
0.00137468      1.59138     -173.143 
0.000685775      3.04113     -175.096 
0.00125266      2.32362     -166.562 
0.000114902      3.03117     -175.079 
0.000558161      3.02036     -175.252 
0.000289405      2.74243     -172.668 
0.000996221      3.33024     -166.631 
0.00154598      1.08904     -172.614 
0.000996331     0.259422     -117.553 
0.000584823      1.70106     -177.979 
0.00114546      1.69106     -177.967 
0.000675412     0.362491     -155.556 
0.000346995     0.181108     -6.34019 
0.00516353     0.463896      172.569 
0.000574085      2.73125     -172.849 
0.000823543     0.182483     -9.46232 
0.000913151      1.59261     -172.786 
0.000588074      3.42446     -170.758 
0.000741369      3.34229     -166.504 
0.000702852      2.31158     -166.745 
8.62035e-05      2.66610     -167.215 
8.48852e-05      3.14841     -173.800 
5.66378e-05     0.980306     -161.565 
0.000165851      3.00958     -175.426 
0.000286961     0.375766     -154.799 
0.000159795      2.68782     -167.101 
0.000207700     0.983514     -161.012 
0.000179213      3.19152     -173.343 
0.000690323      2.99883     -175.601 
7.45779e-05      2.69981     -166.942 
0.00654676     0.147648      118.301 
0.00205893     0.148661      109.654 
   1.06702    0.0199999     -180.000 
  0.540397    0.0141421      135.000 
 0.0490483   0.00999997     -180.000 
 0.0350532    0.0223606      153.435 
0.00317232    0.0316228      161.565 
0.00457647      0.00000      0.00000 
0.00153968    0.0412310      165.964 
0.00151061    0.0806225      172.875 
0.00437747     0.111803      169.695 
0.00291792    0.0100001      0.00000 
0.00419987    0.0200000      0.00000 
0.00280050     0.121655      170.538 
0.00403869     0.131529      171.254 
0.00400779    0.0300000      0.00000 
0.00511066     0.141421      171.870 
0.00383361    0.0400001      0.00000 
0.00603943    0.0500000      0.00000 
0.00599734     0.151327      172.405 
0.00673385    0.0600000      0.00000 
0.00669027     0.161245      172.875 
0.00822582    0.0700000      0.00000 
0.00106590     0.171172      173.290 
 0.0714905     0.180278      176.820 
 0.0173106     0.181108      173.660 
 0.0104251     0.110454      5.19443 
 0.0188794     0.130384      4.39871 
0.00220183     0.310644     -176.309 
0.00124516     0.300666     -176.186 
0.00351694     0.270185      177.879 
0.00222149     0.290172     -178.025 
0.000536285     0.301496     -174.289 
0.000418604     0.370000     -161.075 
0.00206708     0.233452      170.134 
0.00135795     0.150000      126.870 
0.00285081     0.241868      172.875 
0.00268809     0.260768      175.601 
0.00110840     0.155242      104.931 
0.000768944     0.280178     -177.955 
0.000296049     0.360555     -160.560 
0.00306507     0.254951     -115.560 
0.000187663     0.155563      135.000 
0.00208108     0.250799     -113.499 
0.00102192     0.251794      173.157 
0.00105851     0.148661     -19.6538 
0.00203490     0.144222      123.690 
0.00199490     0.237697     -112.249 
0.00124754     0.250799      175.426 
 0.0103123     0.143178      114.775 
0.00204720     0.234094     -109.983 
0.000429761     0.221359     -108.435 
0.000598171     0.260192      177.797 
0.000459397     0.139284     -68.9625 
7.30833e-05     0.270000     -180.000 
0.00379044     0.336155     -22.7510 
0.00389148     0.715891     -151.645 
0.00245958      3.02552     -159.289 
0.00210617      3.28672     -166.809 
0.000161788      3.06283     -174.755 
0.000100191      3.17166     -173.301 
0.00115038      1.70144     -177.642 
4.81973e-05      3.18277     -173.143 
0.000141106      3.03033     -175.268 
0.000139894      3.20383     -173.008 
0.00112310      2.05353     -171.317 
0.000223037      3.01955     -175.441 
0.000266595      3.03842     -159.179 
0.000261615      3.21498     -172.853 
0.00211860      1.74957     -167.791 
0.000435774      3.22616     -172.699 
8.06176e-05     0.332415     -21.1613 
0.000310810      3.04120     -163.770 
0.000854227      1.60515     -172.122 
0.00103861     0.323110     -21.8014 
0.000593500     0.326956     -23.4287 
0.000329246      2.98811     -175.778 
0.000709545      3.23736     -172.546 
0.000600931      3.05360     -163.642 
0.000201034      3.05133     -159.070 
0.000581784      2.99808     -175.792 
0.000416977     0.465296      171.347 
0.000445567      2.57309     -168.341 
0.000534392      2.04216     -171.552 
0.000497168      1.71143     -177.656 
6.30770e-05      3.06425     -158.962 
0.000341954      3.13268     -158.267 
0.000395434      3.24858     -172.394 
0.000200652      3.05644     -163.462 
0.000107193      3.06888     -163.337 
0.00128930     0.147648     -28.3008 
0.00609752      3.59347     -173.449 
