! Center RA: 22 32 36.40891,  Dec: +11 43 50.90405 (2000.0)
! Established model.
! Flux (Jy) Radius (mas)  Theta (deg)  Major (mas)  Axial ratio   Phi (deg) T \
! Freq (Hz)     SpecIndex
  0.441410      0.00000      0.00000 
 0.0957121    0.0282843      135.000 
 0.0169393    0.0565685      135.000 
 0.0270976    0.0282843     -45.0000 
 0.0506182    0.0848528      135.000 
 0.0788240    0.0565685     -45.0000 
0.00229356     0.113137      135.000 
 0.0755551     0.100000      126.870 
 0.0576636    0.0447213     -63.4349 
 0.0345674    0.0894427      116.565 
 0.0271963    0.0400000     -90.0000 
 0.0176687    0.0824621      104.036 
 0.0155469    0.0447213     -116.565 
0.00987587    0.0800000      90.0000 
0.00548773    0.0824621      75.9637 
0.00884311    0.0565685     -135.000 
0.00130003    0.0894427      63.4350 
0.00333339     0.100000      53.1301 
0.000163457     0.128062      141.340 
0.00635934     0.905097      135.000 
 0.0114039     0.596657      140.440 
0.00181705     0.919348      134.119 
0.00292750     0.891067      135.909 
 0.0151906     0.581378      139.185 
0.00739665     0.947629      134.145 
0.00481418     0.891964      137.726 
 0.0183957     0.382099      132.879 
0.00341238     0.893756      139.538 
 0.0166349     0.962081      133.315 
 0.0111830     0.909065      140.356 
0.00236709     0.584123      141.953 
 0.0241968     0.367696      135.000 
 0.0241469     0.672309      149.621 
0.000362461     0.781025      129.806 
0.00107058     0.924554      141.147 
 0.0214558     0.768375      128.660 
0.00303757     0.960208      144.324 
0.000994366     0.566392      137.862 
0.000667010     0.940213      141.911 
0.00666465     0.976524      145.008 
0.000316820     0.551725      136.469 
0.000625391     0.956033      142.651 
0.00179514     0.565685      135.000 
0.00145045     0.972008      143.366 
0.00316355     0.551725      133.531 
 0.0212245     0.988130      144.058 
0.00851044     0.976729      132.510 
0.00353366     0.538145      131.987 
 0.0132611     0.524976      130.365 
0.00574243     0.990353      133.363 
0.00208830     0.752861      129.611 
0.00447077      1.04995      139.635 
8.49252e-05     0.763675      135.000 
0.00110837     0.749667      133.919 
0.000386019     0.963328      131.634 
0.00109345     0.865332      123.690 
0.00445341     0.733485      115.866 
 0.0103877     0.724983      114.444 
 0.0106438     0.706824      115.115 
0.000105241     0.715542      116.565 
0.00122579      1.16619      149.036 
0.00189406      1.17337      150.376 
0.00664608     0.480833      135.000 
0.00130774      1.03479      131.082 
0.00938611      1.32575      146.070 
0.00566868      1.02176      130.236 
9.10946e-05      1.19080      150.852 
0.00242380      1.21655      152.592 
0.00282982      1.23434      153.020 
0.00148365     0.495177      133.363 
0.00285797      1.02450      128.660 
0.000232325      1.22066      145.008 
0.00148961     0.495177      136.637 
0.00193336     0.524976      130.365 
0.000955444      1.20433      144.462 
0.00123786      1.00896      129.369 
0.00182069      1.25220      153.435 
0.00104741      1.35351      145.840 
0.00100001      1.01213      127.776 
-0.00146506      1.37011      146.310 
0.000393711     0.512250      141.340 
0.000282257      1.02801      127.093 
0.00255872      2.41346      145.125 
0.00214780      2.40865      144.462 
0.000726218      2.39240      144.184 
0.00103370      2.42990      145.394 
0.000216209      2.37622      143.902 
0.00190024      2.25229      142.214 
0.00105936      2.44639      145.660 
0.00150738      2.46293      145.923 
0.00235895      2.26460      141.814 
0.00109548      2.47952      146.182 
0.000243634      2.48516      146.821 
0.00859507     0.451221      167.196 
0.00162064     0.721110      160.560 
0.00423362      1.75568      132.230 
0.00241210      1.09142      166.218 
0.000730683     0.702282      160.017 
0.000272322     0.728011      159.075 
0.00390724      1.10635      167.471 
0.00317981     0.709366      158.499 
0.00196392     0.980816      159.717 
5.63218e-05      1.81571      130.533 
0.00130546      1.83096      130.126 
0.00177767     0.447214      169.695 
0.000107289      1.72743      132.184 
0.00118708      1.74092      132.672 
0.000158803      1.81813      129.644 
0.000473986      1.83358      129.245 
0.000392653      1.82099      128.758 
0.000158259      1.81041      135.895 
0.00105621      1.64924      129.094 
0.00118632      1.84196      131.479 
0.000735665     0.969330      158.199 
0.00135776      1.14978      139.939 
0.00270680      1.63377      129.536 
4.92649e-05     0.505964      108.435 
0.00116446     0.950789      157.751 
0.00106948     0.512640      110.556 
0.00317463     0.793221      123.690 
0.00126278      1.85699      131.070 
0.000259204     0.962081      159.305 
0.000667081      1.16825      141.953 
0.00124871     0.943398      158.875 
0.00226052     0.528394      119.476 
0.000502419      1.16516      140.572 
0.000392358      1.85526      131.941 
3.28255e-05     0.494773      104.036 
6.29797e-05     0.490306      101.768 
0.00133517     0.932309      157.286 
8.88479e-05     0.486621      99.4623 
0.000798950      1.84391      130.601 
0.00115848      1.18406      142.549 
0.000882887     0.483735      97.1250 
0.000704534      1.11803      137.175 
0.00117371     0.782304      122.471 
0.000278822     0.470744      167.735 
0.000745094     0.494773      165.964 
7.11071e-05      1.86869      132.397 
0.000234686     0.924770      158.429 
0.000402824      1.20000      143.130 
0.000258598      1.86762      133.264 
0.000774737     0.913893      156.801 
0.00170300     0.974064      160.821 
2.46631e-05      1.10345      136.469 
0.00460523      1.64839      144.382 
0.00103975      1.64268      137.961 
0.00438686     0.377359      122.005 
0.00321269      1.65759      138.424 
9.29870e-05     0.388330      124.509 
0.00131789      2.12659      148.851 
0.00188905      2.09914      149.036 
0.000188593      2.08701      140.054 
0.000309531      2.06466      141.687 
8.89273e-05      2.09990      139.635 
0.000511887      2.08471      139.279 
0.000121851      2.08038      142.028 
0.000195852      2.18156      148.496 
0.00263897      2.06814      142.465 
0.000242072      2.19208      148.050 
0.000451125      2.06785      138.136 
0.00119870      2.20907      148.325 
0.00180708      2.05300      137.764 
0.000220699      2.05456      148.941 
0.000332751      2.21964      147.885 
0.000207184      2.07171      149.226 
0.000684968      1.84174      124.380 
4.50842e-05      1.84716      123.518 
0.000130143      1.83619      122.998 
0.000244300      1.81835      119.667 
0.00194207      1.80854      119.116 
0.00126804      1.85311      124.891 
0.000352043      1.15603      142.734 
0.00276441      1.64438      138.945 
0.00171351     0.895545      156.297 
0.000549369      2.11518      139.986 
6.82948e-05      2.09781      138.865 
0.000129034      2.08279      138.504 
0.00896264      1.17201      143.326 
3.09061e-05      2.06649      137.353 
0.000366902      2.05183      136.975 
0.000755222      2.11783      140.749 
0.00163679      2.03725      136.591 
0.00115740      1.86462      125.395 
0.00155048      2.12085      141.509 
0.000465395     0.877269      155.772 
0.000596908      1.17644      144.689 
0.000458024     0.992975      161.200 
0.000666282      1.64657      139.927 
5.07031e-05     0.885664      154.592 
0.000503457      1.87627      125.893 
0.000446315     0.867640      154.026 
0.000210094      1.82603      118.811 
3.99990e-05      1.18152      146.041 
0.00348850      2.78891      132.384 
0.00263285      2.36812      127.451 
0.00269044      2.35032      132.241 
0.000357404      2.80371      132.109 
0.000337262      2.80528      131.532 
0.000370680      2.33692      131.878 
0.00119584      1.89251      125.538 
0.000172578      1.88807      126.384 
0.000234222      1.90000      126.870 
0.00120699      1.85300      122.661 
0.000913900      1.91207      127.349 
9.11270e-05      1.89621      127.716 
0.00141733     0.121655      80.5377 
-0.000858153     0.120000      0.00000 
0.00475039     0.172046     -35.5377 
-0.00115927    0.0447214      153.435 
-0.00500831     0.140000      0.00000 
0.000984513     0.120000      90.0000 
-0.000607758    0.0632456      161.565 
-0.000694076    0.0824621      165.964 
0.00188389     0.107703      68.1986 
0.000817568     0.101980      78.6901 
0.00141957     0.184391      139.399 
-0.00462117     0.101980      168.690 
-0.00126138     0.121655      170.538 
-0.000267174     0.128062     -128.660 
0.00173256     0.161245     -29.7449 
-0.00260397     0.116619     -120.964 
0.00798815     0.100000     -143.130 
-0.00174054     0.197990      45.0000 
0.00112839     0.172047      144.462 
-0.00447209     0.107703     -111.801 
0.000341747     0.116619      59.0363 
0.00127652     0.113137      45.0000 
8.13619e-05     0.128062      38.6598 
0.00122488     0.398497      162.474 
-0.00429528     0.689638      106.858 
-0.00391401     0.950158      139.268 
0.000311843     0.814371      155.323 
0.000373373     0.310484      104.931 
0.000833793     0.735935      137.203 
-0.00169369     0.937230      140.194 
0.00231774     0.832346      125.218 
0.000652144     0.721388      136.123 
0.00107158     0.707107      135.000 
4.90844e-05     0.733485      154.134 
0.000539177     0.316228      108.435 
0.00222962     0.260000     -22.6199 
0.000911267     0.693109      133.831 
0.000110793     0.670820      153.435 
-0.00143184     0.632456      108.435 
0.000121320     0.652993      152.650 
0.00113527     0.263059      81.2538 
-0.00251553     0.596657      140.440 
0.000318171     0.590593      151.699 
0.000221581     0.323110      111.801 
0.000678912     0.612209      128.367 
0.000333626     0.573062      150.751 
-3.38947e-05    0.0199999      0.00000 
0.00207574     0.867640      115.974 
0.00199898     0.820975      124.077 
-0.00138109     0.921955      139.399 
-7.96680e-05    0.0400000      0.00000 
0.000182450     0.331059      115.017 
0.000384509     0.555698      149.744 
0.000727787     0.750733      138.240 
-7.63232e-05    0.0600000      0.00000 
0.000899880     0.121655      99.4623 
-0.000823841      1.35912      147.011 
-0.00249340     0.935094      138.468 
-5.90936e-05    0.0799999      0.00000 
-7.19620e-05     0.100000      0.00000 
0.000400489     0.967678      161.940 
0.000152709     0.340000      118.072 
0.000638306     0.624820      129.806 
0.000367279     0.538517      148.671 
6.70992e-05     0.765768      139.236 
0.000700397     0.768375      141.340 
0.000103388     0.349857      120.964 
-0.000217366     0.160000      0.00000 
0.000366563     0.637809      131.186 
-0.00122631      1.34833      147.724 
-6.16530e-05      1.26254      139.497 
-0.00248057     0.612209      141.633 
0.000121002     0.360555      123.690 
0.00111963     0.241661     -24.4440 
9.69906e-05     0.752861      140.389 
0.000398356     0.521536      147.529 
-0.000203751     0.180000      0.00000 
-0.00109478     0.388330      101.889 
-0.000121598      1.27781      140.080 
0.000160336     0.372022      126.254 
0.000409774     0.126491      108.435 
-0.000102760     0.240832     -4.76363 
0.000316558     0.961665      163.072 
-1.12986e-05     0.297321      137.726 
-0.00113302     0.282843      135.000 
-0.000749669     0.220907     -5.19441 
0.000175336     0.384188      128.660 
0.000492902     0.504777      146.310 
0.000189320     0.396989      130.914 
0.000448160     0.134164      116.565 
-9.24973e-05      1.04995      130.365 
0.000456076     0.784092      142.253 
0.000497599     0.600000      126.870 
0.000142473     0.410366      133.025 
0.000280856     0.956033      164.219 
-4.95236e-05      1.29321      140.648 
-0.000451366      1.03711      129.523 
0.000207575     0.424264      135.000 
0.000543920     0.837616      123.311 
0.000387530     0.144222      123.690 
0.000305173     0.438634      136.848 
0.000149909     0.549181      123.111 
-9.33067e-05      1.30874      141.203 
2.80512e-05     0.379473      161.565 
9.45742e-06     0.488262      145.008 
0.000203665     0.453431      138.576 
-1.83153e-05     0.639062      110.136 
9.13764e-06     0.800000      143.130 
0.00198759      5.89847      157.261 
0.00256034      6.35610      61.0154 
0.00175503      6.08763      78.2471 
0.000237170     0.975295     -61.8584 
0.00218924     0.984886     -60.8324 
0.00250683      3.02238      75.0442 
0.000685046      1.95489      41.6822 
0.000517815      4.76609     -44.4900 
-0.000824340      4.56509      155.681 
0.00194931     0.903549      62.3005 
0.00256894      4.78079     -43.9830 
0.00199162      2.74591     -47.3614 
0.00109838      6.08358      78.4315 
-0.000748396      3.94122     -31.5123 
-0.000852426      1.19080     -97.7218 
0.000584851      1.94000      42.0750 
0.00171677      1.22000      180.000 
0.000899630      5.91692      157.335 
-0.000502164      2.29103     -135.000 
0.00111335      3.66366      100.697 
-0.00167728      3.02840     -77.7995 
0.000289589      5.03746      169.939 
0.000541573      6.22832      151.624 
0.000288327      6.10554      87.5594 
0.000117276      4.76592     -44.8300 
0.000488248      4.07470     -103.627 
0.00127028      1.90032      49.2679 
-0.000366959      5.39637     -175.536 
-0.00110502      2.43187     -121.206 
-0.00120678      3.95828     -31.3609 
0.00164742      6.36581      60.8580 
-5.72555e-05      5.38628      92.7668 
-0.00180269      4.53863      155.807 
-0.00109403      6.28500      127.891 
0.000165324      4.76592     -45.1700 
-0.00227144      3.57844     -124.756 
-0.000917591      1.46164      163.301 
-0.000897638      5.38728      92.9792 
-0.000323590      5.53888     -140.274 
-0.000372056      1.20814     -96.6544 
0.00180221      5.05715      169.979 
0.000362313      2.44008     -157.850 
-0.000416784      4.41565     -150.416 
0.00117668      4.73730     -124.160 
-0.00111145      5.12141      133.418 
-0.00109636      6.11101      139.114 
0.00165552      6.10472      87.7469 
-0.000207815      5.42059     -137.243 
-0.000524725      1.74195      12.6002 
-0.000674447      5.37643     -175.520 
0.00133458      3.48832      59.3179 
-0.000618072      6.34691     -141.397 
-0.000426104      7.49947      139.001 
-0.000769478      5.43529     -137.386 
0.000270502      1.29692      63.4349 
0.000482974      5.02096     -44.1931 
-0.000961120      5.52351     -140.141 
0.000835955      4.23986      172.137 
-0.000722628      3.54401     -143.259 
-0.000715367      1.21062     -97.5946 
4.93101e-05      1.05773      74.6499 
-0.000190946      6.64072      114.558 
0.00179167      1.97909      165.964 
0.000559505      1.47364     -172.200 
4.84417e-05      6.98936     -146.674 
0.000234804      1.05262      75.6997 
0.00108973      4.20595     -114.737 
-0.00122239      4.97425      77.6961 
0.000579137      1.28810      64.2307 
-0.000597022      4.39827     -150.287 
0.000181598      4.05527     -103.694 
-0.00120322      3.18025      66.6595 
0.000596699      6.24593      151.712 
0.000994019      3.00307      74.9457 
0.000303530      6.97266     -146.583 
0.000379024      5.45241      114.027 
0.00256538      6.06000      78.5788 
0.000519313      4.88336     -162.604 
0.000387883      2.76384      26.1942 
0.000500632      2.12000      0.00000 
0.000265931      1.46711     -152.387 
-0.000825494      6.63244      114.401 
4.51098e-05      4.66648     -141.263 
0.00214274     0.992975     -62.4027 
-0.000703636      2.72918     -56.6593 
0.000780846      1.04786      76.7595 
-0.000540344      1.80278      19.4400 
0.00100133      5.03532     -44.0344 
-0.000368391      3.04611      48.4602 
-0.00203961      7.90759      140.027 
-0.000556998      6.76062      120.586 
-0.00109807      3.78867     -55.9744 
0.000886399      2.80492      10.2683 
-0.00127612      2.74372     -82.4606 
0.000791839      5.44430      113.834 
0.000385812      2.57379      50.9925 
-0.000283102      5.35496     -175.716 
-0.000622869      6.33445     -141.538 
-0.000599793      6.02730      71.6252 
0.00111608      5.52007     -145.331 
-0.000435122      5.36731      92.9903 
0.000586702      1.65711     -150.341 
-0.000807534      4.61671      168.252 
0.000472620      1.01272      80.9097 
0.000508024      2.96432     -93.0941 
-0.000937964      2.40441     -121.045 
0.00182463      4.72055      33.4208 
0.000875718      5.78584      87.4244 
4.15980e-05      4.03113     -103.485 
0.000475576      1.48486     -152.745 
0.000715206     0.588558     -170.218 
0.00108552      2.85412     -118.002 
0.00191796      2.56320     -73.6861 
-0.00122387      4.49088      70.7581 
-4.07953e-05     0.782304     -57.5288 
-0.000512524      6.29730      128.035 
0.00102156      6.05607      78.7643 
-0.00113715      5.67708      175.555 
-0.00123677      2.23294      173.830 
0.000118009      5.92679      60.9266 
-0.00124285      3.52800     -143.065 
-7.99802e-05     0.832346     -54.7824 
0.00189435      4.00704     -103.273 
0.000498448      2.74591      26.3784 
-0.00120128      5.33502     -175.700 
-0.000770041      4.78682     -48.0484 
0.000365552      5.08193     -178.421 
0.000113887      5.93539      157.410 
0.000193107      2.54849     -8.57523 
-0.000972003      6.09590      138.991 
0.00114237      7.25493      134.888 
-0.000298962     0.844038     -53.6732 
-0.000108984      6.89214      143.496 
0.000465011      1.00975      82.0304 
-0.000183150      4.44059     -49.5666 
0.000321753     0.913017      61.1892 
0.000247860      3.34885      164.055 
7.57074e-05      2.80143      9.86581 
0.000333544      4.89522      161.417 
-0.00225445      4.74105      88.7914 
-0.000685116      2.34828      35.9915 
0.000885511      3.56926     -157.602 
-0.000252223      1.78393      19.6538 
0.000294064      4.46865      159.294 
0.000253199      2.73240     -47.6699 
-0.000313054      5.26881      72.3216 
-0.000143595      1.48661      162.784 
-0.000694046      5.50818     -140.008 
0.000254483      4.98080      106.325 
-0.00219732      4.86958     -38.3291 
0.000590377      3.98301     -103.059 
0.000537985      1.27953      65.0372 
-0.000963286      5.57200     -135.000 
-0.000632188      5.49054     -139.580 
0.000109248      1.77629      35.8377 
0.000376112      2.99546     -124.114 
0.00106277      2.56827     -8.50870 
0.000726639      6.33861      60.9278 
0.000349516      2.76007      89.5848 
-0.000272611      1.34536     -5.11732 
3.66561e-05      3.25263      35.7424 
-0.000470838      5.36839      93.2035 
0.000300684      2.14000      0.00000 
0.000106689      2.78173      9.93639 
0.000282783      1.45382     -172.093 
0.000158908      4.94271      66.1317 
-3.60342e-05      2.65767     -61.6992 
6.93238e-05      6.99514     -146.901 
3.59246e-05      1.78807      36.3572 
-0.000988799      3.55258      172.235 
0.00133685      2.86356     -118.355 
-0.000103842      3.21459      23.8539 
-0.000481324      6.62420      114.244 
-0.00112457      6.75047      120.440 
-0.000138517      1.12872      119.745 
0.000332984      2.96547     -93.4799 
0.000698292      4.44994      159.203 
0.00143873      2.80143     -170.134 
0.000387366      1.77200      36.7406 
0.00174813      4.90163      161.195 
0.000448102      3.95034     -102.277 
-0.000749692      4.05216     -68.8813 
-0.000200943     0.856037     -52.5946 
0.00146303      4.97522      106.104 
-0.000174447      1.76148      12.4582 
0.000129267      4.66965     -141.608 
0.000439145      8.37601      133.258 
-3.44284e-05      6.18750     -158.577 
-6.68614e-05      3.59739      79.7521 
0.00150405      2.78525      10.3416 
-0.00129372      6.16889     -158.509 
0.000317453      7.26906      135.000 
0.000772276      5.76784      104.663 
0.000260188      6.76804      127.073 
-0.000643059      1.13877      120.619 
0.000158051      2.71897     -47.9815 
